On-line analysis performed 20-Oct-2015 19:34:21
Volumes are given in BTPS, except VCO2 is given in STP0 and Cs is given in AP21. 
Patient: Date=, F/M=, Age=, L= cm, W= kg
BreathNo	clock	tcycle	dtcycle	dtinsp	dtexsp	dtip	dtep	VTiPat	VTePat	VTiCO2	VTeCO2	MVCO2	Pmean	Pinsp	Pexp	FIO2	RR	RSBI	Rmean	Cmean	Cs	EdiPeak	EdiMean	EdiMin	NAVALevel	PS	Edi Int	Edi Ti	P/I	Linear	TI	Comments
[]	[hh.mm]	[m]	[s]	[s]	[s]	[s]	[s]	[ml]	[ml]	[ml]	[ml]	[ml/min]	[cmH2O]	[cmH2O]	[cmH2O]	[%]	[b/min]	[b/min/l]	[cmH2O/(l/s)]	[ml/cmH2O]	[ml/cmH2O]	[uV]	[uV]	[uV]	[cmH2O/uV]	[cmH2O]	[uVs]	[s]	[s]	[-]	[s]	
    1.0000	   19.3435	    0.0352	    2.1100	    0.7000	    1.4100	    0.0000	    0.0000	  581.1242	  522.3568	    0.2241	    5.7328	  156.6438	   10.8375	   21.5611	    7.3107	   45.0000	    0.0000	    0.0000	    5.7930	   66.3673	    1.8600	   18.4758	    5.4784	    0.1472	    0.6000	   12.0000	    8.7352	    0.7000	   21.1511	    1.2280	   25.9740	 Patient: Date=, F/M=, Age=, L= cm, W= kg
    2.0000	   19.3437	    0.0657	    1.8300	    0.7500	    1.0800	    0.0000	    0.0000	  604.6806	  513.1958	    0.2485	    5.2667	  164.5307	   11.6682	   21.9778	    8.0268	   45.0000	   28.4360	   60.2206	    5.8896	   60.7557	    1.8600	   19.7088	    7.1519	    0.3312	    0.6000	   12.0000	    9.9927	    0.7500	   19.7232	    1.2291	   24.2424	
    3.0000	   19.3442	    0.1087	    2.5800	    1.1000	    1.4800	    0.0000	    0.0000	  396.1490	  472.5621	    0.2276	    5.3108	  118.2137	    9.7822	   16.4573	    8.0659	   45.0000	   30.4569	   70.0464	    4.2726	  146.3823	    1.8600	   13.1944	    3.8848	    0.4785	    0.6000	   12.0000	    7.2996	    1.1000	   18.0755	    0.9144	   16.5289	
    4.0000	   19.3445	    0.1447	    2.1600	    0.6500	    1.5100	    0.0000	    0.0000	  423.9678	  429.2160	    0.1580	    4.5507	  122.0186	    9.7174	   19.3607	    8.0529	   45.0000	   27.6074	   69.9050	    4.1709	  127.8360	    1.8600	   17.9238	    4.4553	    0.6257	    0.6000	   12.0000	    6.4750	    0.6500	   27.6815	    1.0105	   27.9720	
    5.0000	   19.3448	    0.1805	    2.1500	    0.6100	    1.5400	    0.0000	    0.0000	  368.4555	  362.6036	    0.1849	    3.5854	   94.9000	    9.1921	   14.5433	    7.9682	   45.0000	   27.6498	   82.8741	    3.0581	  170.0616	    1.8600	   10.8573	    3.2665	    0.4785	    0.6000	   12.0000	    4.5806	    0.6100	   23.7029	    1.2575	   29.8063	
    6.0000	   19.3450	    0.1963	    0.9500	    0.7400	    0.2100	    0.0000	    0.0000	  575.5518	   87.1423	    0.1915	    0.0000	  -12.0968	   13.2160	   21.3268	    8.8536	   45.0000	   27.7008	       NaN	    6.1520	   93.4981	    1.8600	   20.2977	   11.2042	    1.1225	    0.6000	   12.0000	    8.7041	    0.7400	   23.3197	    1.0536	   24.5700	
    7.0000	   19.3453	    0.2240	    1.6600	    0.1100	    1.5500	    0.0000	    0.0000	  -10.4745	  424.8895	    0.0000	    6.4690	  233.8175	    9.1830	   13.8923	    7.8641	   45.0000	   30.5603	   78.1701	    7.5776	       NaN	    1.8600	    8.0786	    2.1812	    0.3312	    0.6000	   12.0000	    0.7653	    0.1100	       NaN	       NaN	       NaN	
    8.0000	   19.3457	    0.2632	    2.3500	    0.7500	    1.6000	    0.0000	    0.0000	  608.3306	  594.0580	    0.2168	    7.2152	  178.6834	   10.5958	   22.4986	    7.9682	   45.0000	   31.2500	   57.1716	    5.3359	   86.5982	    1.8600	   20.7209	    5.5121	    0.2024	    0.6000	   12.0000	    9.6390	    0.7500	   21.4970	    1.1277	   24.2424	
    9.0000	   19.3458	    0.2770	    0.8300	    0.6700	    0.1600	    0.0000	    0.0000	  476.5083	   37.5369	    0.1884	    0.0000	  -13.6213	   12.6702	   19.5821	    9.0619	   45.0000	   30.3990	       NaN	    5.6589	   97.2965	    1.8600	   17.7950	   10.0638	    0.8649	    0.6000	   12.0000	    6.8558	    0.6700	   25.9562	    1.0455	   27.1370	
   10.0000	   19.3460	    0.2947	    1.0600	    0.0900	    0.9700	    0.0000	    0.0000	  -19.3450	  327.7591	    0.0000	    3.5908	  203.2542	    9.4702	   13.2283	    7.9682	   45.0000	   32.4910	  107.7376	    6.8154	       NaN	    1.8600	    8.4466	    2.1817	    0.6073	    0.6000	   12.0000	    0.6294	    0.0900	       NaN	       NaN	       NaN	
   11.0000	   19.3463	    0.3287	    2.0400	    0.4900	    1.5500	    0.0000	    0.0000	  336.9767	  407.5538	    0.2864	    4.5028	  124.0113	    9.4226	   17.6161	    7.2326	   45.0000	   33.9367	   90.4989	    3.4864	  126.7096	    1.8600	   14.9794	    4.1473	    0.3128	    0.6000	   12.0000	    5.0706	    0.4900	   29.5415	    1.2561	   37.1058	
   12.0000	   19.3467	    0.3622	    2.0100	    0.5200	    1.4900	    0.0000	    0.0000	  427.4458	  419.9365	    0.1984	    4.4821	  127.8724	    9.7410	   19.1524	    7.9422	   45.0000	   33.4686	   86.6189	    3.9124	  115.0448	    1.8600	   13.7649	    3.3992	    0.3496	    0.6000	   12.0000	    4.3968	    0.5200	   31.3062	    1.1169	   34.9650	
   13.0000	   19.3472	    0.4005	    2.3000	    0.6000	    1.7000	    0.0000	    0.0000	  410.6813	  397.3924	    0.2484	    4.2685	  104.8721	    9.3710	   18.5014	    7.3954	   45.0000	   33.1339	   90.6176	    3.6482	  146.1890	    1.8600	   16.9301	    4.0780	    0.1656	    0.6000	   12.0000	    5.6798	    0.6000	   29.8072	    1.0166	   30.3030	
   14.0000	   19.3475	    0.4362	    2.1400	    0.4800	    1.6600	    0.0000	    0.0000	  407.8077	  397.9505	    0.2594	    4.2436	  111.7077	    9.5445	   19.7904	    7.4865	   45.0000	   32.8522	   89.7210	    3.8289	  126.2491	    1.8600	   14.8874	    3.1854	    0.1472	    0.6000	   12.0000	    4.2941	    0.4800	   34.6697	    1.0926	   37.8788	
   15.0000	   19.3478	    0.4710	    2.0900	    0.7600	    1.3300	    0.0000	    0.0000	  690.1555	  570.7044	    0.1805	    6.5768	  183.6253	   11.7535	   24.8291	    7.8055	   45.0000	   32.3887	   61.6796	    6.9056	   61.5504	    1.8600	   21.2914	    6.3855	    0.3496	    0.6000	   12.0000	    9.8751	    0.7600	   21.5607	    1.1096	   23.9234	
   16.0000	   19.3482	    0.5050	    2.0400	    0.6500	    1.3900	    0.0000	    0.0000	  422.3018	  449.0503	    0.3057	    4.7504	  130.7270	    9.8065	   17.3036	    7.2001	   45.0000	   33.1187	   80.1562	    3.9991	   86.4414	    1.8600	   12.7896	    4.0792	    0.3128	    0.6000	   12.0000	    5.9430	    0.6500	   21.5204	    1.2998	   27.9720	
   17.0000	   19.3485	    0.5353	    1.8200	    0.4500	    1.3700	    0.0000	    0.0000	  384.2194	  389.9944	    0.2712	    3.9232	  120.3961	    9.8040	   19.5170	    7.8966	   45.0000	   33.3025	   92.8064	    3.8196	  127.4566	    1.8600	   14.6298	    3.8226	    0.2760	    0.6000	   12.0000	    4.2429	    0.4500	   34.4805	    1.1718	   40.4040	
   18.0000	   19.3488	    0.5708	    2.1300	    0.6300	    1.5000	    0.0000	    0.0000	  385.5483	  385.4606	    0.2244	    3.9141	  103.9365	    9.2243	   17.1604	    7.8771	   45.0000	   32.4484	   91.4897	    2.9086	  159.5015	    1.8600	   14.4089	    3.5538	    0.2760	    0.6000	   12.0000	    4.6634	    0.6300	   30.8979	    0.9340	   28.8600	
   19.0000	   19.3492	    0.6047	    2.0300	    0.6400	    1.3900	    0.0000	    0.0000	  452.6302	  414.6688	    0.1838	    4.4590	  126.3619	    9.8102	   20.5846	    7.9422	   45.0000	   31.7155	   83.1247	    3.9250	  147.8883	    1.8600	   19.8928	    4.8164	    0.2392	    0.6000	   12.0000	    6.2024	    0.6400	   32.0729	    0.8858	   28.4091	
   20.0000	   19.3492	    0.6165	    0.7100	    0.5900	    0.1200	    0.0000	    0.0000	  370.6793	    3.2191	    0.2288	    0.0000	  -19.3372	   10.9845	   16.2750	   10.2663	   45.0000	   32.2108	       NaN	    4.1277	  116.9064	    1.8600	   12.8264	    7.1922	    1.2329	    0.6000	   12.0000	    4.1883	    0.5900	   30.6239	    1.0063	   30.8166	
   21.0000	   19.3495	    0.6377	    1.2700	    0.2500	    1.0200	    0.0000	    0.0000	  -12.6741	  286.9094	    0.0000	    2.6564	  125.4970	    9.8650	   13.0721	    8.0919	   45.0000	   32.4006	  122.7347	    6.9022	       NaN	    1.8600	    7.5633	    2.8625	    0.4048	    0.6000	   12.0000	    1.7386	    0.2500	   43.5036	    1.6718	   72.7273	
   22.0000	   19.3497	    0.6683	    1.8400	    0.5800	    1.2600	    0.0000	    0.0000	  325.7204	  347.5038	    0.2624	    3.3026	   99.1362	    9.3295	   14.7647	    7.9878	   45.0000	   32.0700	  100.2994	    3.1136	  149.1072	    1.8600	   10.7653	    3.4701	    0.3312	    0.6000	   12.0000	    4.2080	    0.5800	   25.5827	    1.2254	   31.3480	
   23.0000	   19.3502	    0.7060	    2.2600	    0.7600	    1.5000	    0.0000	    0.0000	  566.3101	  558.3795	    0.1979	    6.8194	  175.7928	   10.6499	   23.2667	    8.0138	   45.0000	   32.3847	   63.0333	    5.5142	   74.5092	    1.8600	   22.0091	    5.6845	    0.2392	    0.6000	   12.0000	    9.4481	    0.7600	   23.2948	    1.0270	   23.9234	
   24.0000	   19.3505	    0.7410	    2.1000	    0.6400	    1.4600	    0.0000	    0.0000	  482.3957	  489.8621	    0.2387	    5.8009	  158.9206	   10.1922	   21.8736	    7.9292	   45.0000	   31.9922	   70.9791	    4.6234	  102.5028	    1.8600	   21.5122	    5.2437	    0.0920	    0.6000	   12.0000	    7.6307	    0.6400	   28.1918	    1.0077	   28.4091	
   25.0000	   19.3508	    0.7763	    2.1200	    0.7300	    1.3900	    0.0000	    0.0000	  519.1176	  482.2086	    0.2484	    5.5001	  148.6338	   10.2419	   19.5430	    8.0399	   45.0000	   32.3054	   72.8115	    4.7687	   94.7454	    1.8600	   16.7276	    4.8163	    0.3312	    0.6000	   12.0000	    7.3264	    0.7300	   22.8320	    1.0909	   24.9066	
   26.0000	   19.3512	    0.8013	    1.5000	    0.7400	    0.7600	    0.0000	    0.0000	  494.1772	  334.1843	    0.2299	    2.3502	   84.8104	   11.2771	   19.0352	    7.8706	   45.0000	   32.3371	  105.1658	    5.7444	   61.2778	    1.8600	   14.4458	    6.1325	    0.8281	    0.6000	   12.0000	    6.8958	    0.7400	   20.9487	    1.1729	   24.5700	
   27.0000	   19.3515	    0.8350	    2.0200	    0.4300	    1.5900	    0.0000	    0.0000	  196.1390	  368.9826	    0.2502	    4.5950	  129.0529	    8.8517	   13.7101	    7.9422	   45.0000	   32.8617	   96.7929	    1.9018	  155.3701	    1.8600	    9.2747	    2.4581	    0.2208	    0.6000	   12.0000	    2.9971	    0.4300	   30.9459	    1.3664	   42.2833	
   28.0000	   19.3518	    0.8708	    2.1500	    0.6300	    1.5200	    0.0000	    0.0000	  485.7047	  448.0830	    0.2270	    5.0405	  134.3300	    9.8552	   21.4309	    7.5191	   45.0000	   32.9670	   79.9615	    3.9853	  135.5960	    1.8600	   21.1074	    4.6769	    0.1288	    0.6000	   12.0000	    6.7670	    0.6300	   31.1918	    0.9252	   28.8600	
   29.0000	   19.3518	    0.8808	    0.6000	    0.4800	    0.1200	    0.0000	    0.0000	  345.6153	    3.5746	    0.1880	    0.0000	  -18.7960	   11.7918	   17.2906	    9.7845	   45.0000	   32.7869	       NaN	    5.7927	   96.3500	    1.8600	   14.4089	    8.9312	    0.7913	    0.6000	   12.0000	    4.3657	    0.4800	   33.0052	    1.1477	   37.8788	
   30.0000	   19.3522	    0.9020	    1.2700	    0.0800	    1.1900	    0.0000	    0.0000	   -6.4012	  297.0607	    0.0000	    2.7551	  130.1637	    9.0535	   12.4862	    8.0138	   45.0000	   34.7323	  127.0713	    6.0913	       NaN	    1.8600	    7.3609	    2.3369	    0.3312	    0.6000	   12.0000	    0.4710	    0.0800	       NaN	       NaN	       NaN	
   31.0000	   19.3525	    0.9413	    2.3600	    0.7700	    1.5900	    0.0000	    0.0000	  545.9825	  546.2845	    0.2281	    6.4951	  159.3308	   10.1967	   19.5430	    7.9422	   45.0000	   35.4545	   70.5363	    4.5718	  110.7740	    1.8600	   17.1877	    4.9935	    0.3864	    0.6000	   12.0000	    8.2555	    0.7700	   20.8196	    1.1342	   23.6128	
   32.0000	   19.3528	    0.9737	    1.9400	    0.6700	    1.2700	    0.0000	    0.0000	  452.0539	  425.0885	    0.2727	    4.4058	  127.8264	    9.7076	   18.8920	    7.9748	   45.0000	   35.6436	   91.1300	    3.2889	  141.0764	    1.8600	   16.8933	    4.1935	    0.1840	    0.6000	   12.0000	    5.4484	    0.6700	   31.0057	    0.8752	   27.1370	
   33.0000	   19.3532	    1.0157	    2.5200	    0.6900	    1.8300	    0.0000	    0.0000	  482.1085	  498.2342	    0.2353	    6.0816	  139.1966	    9.6358	   20.4805	    7.3954	   45.0000	   32.7381	   71.4133	    3.7805	  140.0891	    1.8600	   19.5432	    4.1587	    0.1840	    0.6000	   12.0000	    6.9349	    0.6900	   28.1810	    0.9350	   26.3505	
   34.0000	   19.3537	    1.0553	    2.3800	    0.7500	    1.6300	    0.0000	    0.0000	  670.2585	  625.8382	    0.1955	    7.6780	  188.6352	   11.0355	   23.8917	    8.0398	   45.0000	   31.6699	   54.9976	    5.8555	   81.3078	    1.8600	   19.4512	    5.3477	    0.2576	    0.6000	   12.0000	    8.3975	    0.7500	   23.1631	    1.0466	   24.2424	
   35.0000	   19.3540	    1.0937	    2.3000	    0.8300	    1.4700	    0.0000	    0.0000	  649.0512	  626.1844	    0.2359	    7.5248	  190.1440	   11.0710	   24.1130	    7.9943	   45.0000	   31.4885	   54.6525	    5.5151	   75.6739	    1.8600	   22.7820	    6.1720	    0.2576	    0.6000	   12.0000	   10.7101	    0.8300	   21.2715	    1.0298	   21.9058	
   36.0000	   19.3543	    1.1307	    2.2200	    0.7400	    1.4800	    0.0000	    0.0000	  593.0206	  602.1791	    0.2167	    7.0890	  185.7380	   10.9526	   23.9308	    7.9813	   45.0000	   31.1909	   56.2940	    5.4903	   82.0414	    1.8600	   22.6900	    6.1274	    0.2944	    0.6000	   12.0000	   10.0108	    0.7400	   22.6654	    1.0840	   24.5700	
   37.0000	   19.3548	    1.1682	    2.2500	    0.7800	    1.4700	    0.0000	    0.0000	  606.0973	  600.0133	    0.2640	    6.9175	  177.4261	   10.9304	   22.0559	    7.9292	   45.0000	   31.0442	   56.2314	    5.5732	   79.7264	    1.8600	   18.9175	    5.8524	    0.3128	    0.6000	   12.0000	   10.0114	    0.7800	   18.8960	    1.2336	   23.3100	
   38.0000	   19.3550	    1.1997	    1.8900	    0.7200	    1.1700	    0.0000	    0.0000	  497.3575	  466.8366	    0.2288	    4.6511	  140.3900	   10.6375	   19.6081	    8.0268	   45.0000	   29.9864	   69.8101	    5.1091	   77.2178	    1.8600	   15.7155	    5.3427	    0.2576	    0.6000	   12.0000	    7.6738	    0.7200	   20.4794	    1.2331	   25.2525	
   39.0000	   19.3555	    1.2415	    2.5100	    0.7500	    1.7600	    0.0000	    0.0000	  344.0640	  415.8165	    0.1509	    4.5105	  104.2139	    9.3251	   17.1604	    7.9162	   45.0000	   30.1645	   78.8414	    4.0480	  141.1136	    1.8600	   14.7586	    3.3018	    0.0736	    0.6000	   12.0000	    5.5409	    0.7500	   26.6357	    0.9101	   24.2424	
   40.0000	   19.3558	    1.2777	    2.1700	    0.7400	    1.4300	    0.0000	    0.0000	  632.7649	  542.3025	    0.1959	    6.1306	  164.0926	   11.1012	   24.5948	    7.9552	   45.0000	   26.5096	   53.1276	    6.2588	   80.8116	    1.8600	   24.5118	    6.5304	    0.2024	    0.6000	   12.0000	   10.6504	    0.7400	   23.0149	    1.0676	   24.5700	
   41.0000	   19.3562	    1.3125	    2.0900	    0.7300	    1.3600	    0.0000	    0.0000	  455.9539	  468.5927	    0.2472	    4.9606	  135.3132	   10.1653	   19.8425	    7.9943	   45.0000	   26.7592	   62.0635	    4.8101	   81.5736	    1.8600	   16.4332	    4.4687	    0.2392	    0.6000	   12.0000	    6.9834	    0.7300	   23.5319	    1.0584	   24.9066	
   42.0000	   19.3567	    1.3535	    2.4600	    0.7200	    1.7400	    0.0000	    0.0000	  519.3665	  529.7086	    0.2340	    6.1714	  144.8162	   10.2612	   20.5586	    7.9422	   45.0000	   26.5617	   54.4978	    5.7978	   74.4997	    1.8600	   17.3901	    4.4123	    0.2208	    0.6000	   12.0000	    8.2771	    0.7200	   21.0098	    1.2019	   25.2525	
   43.0000	   19.3568	    1.3817	    1.6900	    0.5800	    1.1100	    0.0000	    0.0000	  362.8957	  304.7139	    0.2203	    2.2811	   73.1652	    9.3336	   16.3792	    7.9878	   45.0000	   26.6404	   95.0183	    2.8629	  152.2564	    1.8600	   13.2680	    3.6851	    0.2944	    0.6000	   12.0000	    4.0944	    0.5800	   32.4052	    0.9674	   31.3480	
   44.0000	   19.3572	    1.4158	    2.0500	    0.5600	    1.4900	    0.0000	    0.0000	  372.2658	  391.6275	    0.2148	    3.9974	  110.7088	    9.5948	   18.1889	    7.8576	   45.0000	   27.3224	   75.8237	    4.1690	  105.7409	    1.8600	   15.0346	    4.0779	    0.3312	    0.6000	   12.0000	    5.2708	    0.5600	   28.5245	    1.1382	   32.4675	
   45.0000	   19.3575	    1.4507	    2.0900	    0.6900	    1.4000	    0.0000	    0.0000	  589.6819	  529.6678	    0.2433	    6.0659	  167.1568	   10.9499	   24.1521	    7.9552	   45.0000	   27.7393	   56.9181	    5.8721	   71.4582	    1.8600	   23.2972	    6.3173	    0.3496	    0.6000	   12.0000	    9.5335	    0.6900	   24.4373	    1.0783	   26.3505	
   46.0000	   19.3580	    1.4913	    2.4400	    0.7700	    1.6700	    0.0000	    0.0000	  385.6770	  424.2744	    0.1860	    4.6538	  109.8651	    9.3122	   14.1658	    7.9357	   45.0000	   28.0112	   71.7537	    3.6497	  147.8190	    1.8600	    8.5938	    2.8164	    0.2392	    0.6000	   12.0000	    4.9256	    0.7700	   17.4472	    1.3534	   23.6128	
   47.0000	   19.3583	    1.5260	    2.0800	    0.6400	    1.4400	    0.0000	    0.0000	  407.0419	  374.5585	    0.1979	    3.6878	  100.6710	    9.3544	   16.6135	    7.9292	   45.0000	   27.7264	   80.4514	    3.1748	  153.6557	    1.8600	   13.3600	    3.5134	    0.3128	    0.6000	   12.0000	    4.7459	    0.6400	   28.1504	    1.0092	   28.4091	
   48.0000	   19.3587	    1.5657	    2.3800	    0.6400	    1.7400	    0.0000	    0.0000	  409.0203	  409.6237	    0.2122	    4.4671	  107.2664	    9.1764	   17.3426	    7.7144	   45.0000	   27.9460	   74.1470	    2.9379	  166.8233	    1.8600	   14.5562	    3.2677	    0.2944	    0.6000	   12.0000	    4.8770	    0.6400	   29.8468	    0.9518	   28.4091	
   49.0000	   19.3590	    1.6000	    2.0600	    0.7500	    1.3100	    0.0000	    0.0000	  563.5227	  457.3531	    0.2836	    4.8669	  133.4946	   10.6179	   19.7774	    7.2131	   45.0000	   27.3224	   64.9272	    5.6771	   72.1285	    1.8600	   15.8075	    5.1152	    0.2208	    0.6000	   12.0000	    8.1249	    0.7500	   19.4557	    1.2460	   24.2424	
   50.0000	   19.3607	    1.6353	    2.1200	    0.4500	    1.6700	    0.0000	    0.0000	  375.1906	  416.9255	    0.2732	    4.8135	  128.4979	    9.5405	   19.6993	    7.3954	   45.0000	   27.8940	   72.7130	    3.2193	  153.4589	    1.8600	   15.0714	    3.3934	    0.2024	    0.6000	   12.0000	    4.0433	    0.4500	   37.2747	    1.0840	   40.4040	
   51.0000	   19.3607	    1.6667	    1.8800	    0.4600	    1.4200	    0.0000	    0.0000	  401.8144	  379.0012	    0.2468	    3.9353	  117.7155	    9.8273	   18.9181	    7.9422	   45.0000	   27.9590	   80.1753	    4.0266	  122.4616	    1.8600	   13.6177	    3.6797	    0.2392	    0.6000	   12.0000	    4.1796	    0.4600	   32.5812	    1.2131	   39.5257	
   52.0000	   19.3608	    1.7023	    2.1400	    0.6600	    1.4800	    0.0000	    0.0000	  431.5786	  409.5981	    0.2052	    4.4017	  117.6586	    9.5302	   17.6421	    7.9422	   45.0000	   28.2353	   74.9193	    3.4978	  130.3906	    1.8600	   14.5930	    3.8056	    0.3496	    0.6000	   12.0000	    5.3792	    0.6600	   27.1287	    1.0155	   27.5482	
   53.0000	   19.3608	    1.7307	    1.7000	    0.6200	    1.0800	    0.0000	    0.0000	  407.9071	  337.6180	    0.2853	    2.8641	   91.0159	    9.7267	   17.2906	    8.0659	   45.0000	   28.6670	   92.2818	    3.4948	  127.7487	    1.8600	   14.2433	    4.2174	    0.4048	    0.6000	   12.0000	    4.9437	    0.6200	   28.8113	    1.0178	   29.3255	
   54.0000	   19.3608	    1.7363	    0.3400	    0.1000	    0.2400	    0.0000	    0.0000	   -0.4610	   10.0918	   -0.0117	    0.0412	    9.3379	    9.0987	    9.6348	    8.7559	   45.0000	   28.6533	       NaN	    3.6553	  139.5703	    1.8600	    2.5763	    1.7942	    1.0121	    0.6000	   12.0000	    0.2030	    0.1000	       NaN	       NaN	       NaN	
   55.0000	   19.3610	    1.7667	    1.8200	    0.5800	    1.2400	    0.0000	    0.0000	  333.7289	  326.4508	    0.1698	    2.8735	   89.1326	    9.2084	   15.4027	    7.2001	   45.0000	   31.0150	  103.2557	    2.6581	  151.2915	    1.8600	   12.9920	    3.5581	    0.0000	    0.6000	   12.0000	    4.4826	    0.5800	   28.9831	    1.0816	   31.3480	
   56.0000	   19.3612	    1.8020	    2.1200	    0.4700	    1.6500	    0.0000	    0.0000	  414.6167	  431.5822	    0.2419	    4.9270	  132.5957	    9.7100	   19.8034	    7.3563	   45.0000	   31.3539	   78.9565	    3.8264	  124.9215	    1.8600	   14.7218	    3.3380	    0.0000	    0.6000	   12.0000	    4.3958	    0.4700	   33.4903	    1.1551	   38.6847	
   57.0000	   19.3615	    1.8393	    2.2400	    0.7200	    1.5200	    0.0000	    0.0000	  620.7027	  566.0041	    0.2093	    6.9574	  180.7512	   10.9670	   21.9647	    8.0333	   45.0000	   31.3093	   60.1192	    5.9694	   76.5778	    1.8600	   15.7339	    4.6215	    0.0552	    0.6000	   12.0000	    7.3920	    0.7200	   21.2851	    1.1864	   25.2525	
   58.0000	   19.3617	    1.8587	    1.1600	    0.7800	    0.3800	    0.0000	    0.0000	  558.6353	  193.4279	    0.2297	    0.2436	    0.7208	   12.4717	   20.2070	    8.8210	   45.0000	   31.6092	  177.6044	    5.7325	   78.8726	    1.8600	   17.6845	    8.9509	    0.6993	    0.6000	   12.0000	    8.1884	    0.7800	   21.5970	    1.0793	   23.3100	
   59.0000	   19.3618	    1.8803	    1.3000	    0.2900	    1.0100	    0.0000	    0.0000	  -18.2001	  285.8461	   -0.0027	    2.5758	  119.0067	    9.9483	   13.1111	    8.1505	   45.0000	   32.6679	  124.2076	    6.9564	       NaN	    1.8600	   10.2132	    2.9948	    0.2208	    0.6000	   12.0000	    2.2748	    0.2900	   44.8975	    1.3964	   62.6959	
   60.0000	   19.3622	    1.9130	    1.9600	    0.6800	    1.2800	    0.0000	    0.0000	  446.9922	  451.9069	    0.2515	    4.9812	  144.7863	    9.8391	   16.9130	    7.9878	   45.0000	   33.8664	   81.4479	    3.4534	  127.1001	    1.8600	   13.2312	    4.3088	    0.5521	    0.6000	   12.0000	    5.7103	    0.6800	   23.1708	    1.1540	   26.7380	
   61.0000	   19.3625	    1.9487	    2.1400	    0.7200	    1.4200	    0.0000	    0.0000	  542.8039	  529.6228	    0.3194	    6.1727	  164.1109	   10.6445	   20.8190	    8.0464	   45.0000	   34.5489	   70.8969	    5.4281	   79.4904	    1.8600	   17.5557	    5.3335	    0.0920	    0.6000	   12.0000	    8.7780	    0.7200	   19.9998	    1.2626	   25.2525	
   62.0000	   19.3627	    1.9660	    1.0400	    0.7200	    0.3200	    0.0000	    0.0000	  579.6082	  176.3141	    0.2092	    0.0959	   -6.5353	   13.7092	   22.9673	    8.9838	   45.0000	   34.4168	  212.1501	    6.8462	   58.6157	    1.8600	   20.4817	   11.1487	    0.7361	    0.6000	   12.0000	    9.2096	    0.7200	   22.2395	    1.1355	   25.2525	
   63.0000	   19.3630	    1.9860	    1.2000	    0.0900	    1.1100	    0.0000	    0.0000	  -16.6864	  341.9837	    0.0118	    3.4935	  174.0808	    9.4075	   12.6424	    8.0919	   45.0000	   35.5191	  112.8798	    7.3833	       NaN	    1.8600	    6.8640	    1.5418	    0.2576	    0.6000	   12.0000	    0.5020	    0.0900	       NaN	       NaN	       NaN	
   64.0000	   19.3633	    2.0198	    2.0300	    0.6700	    1.3600	    0.0000	    0.0000	  501.0309	  510.2288	    0.2671	    5.8444	  164.8488	   10.4458	   20.3893	    8.0789	   45.0000	   37.0722	   78.9666	    4.5323	  110.0366	    1.8600	   19.0095	    5.4542	    0.4785	    0.6000	   12.0000	    7.8762	    0.6700	   24.1352	    1.1244	   27.1370	
   65.0000	   19.3637	    2.0557	    2.1500	    0.7400	    1.4100	    0.0000	    0.0000	  555.4934	  550.2071	    0.2325	    6.3101	  169.6084	   10.7018	   21.4960	    8.1050	   45.0000	   36.8098	   72.7105	    5.2779	   79.4450	    1.8600	   18.7335	    5.6353	    0.3496	    0.6000	   12.0000	    8.9241	    0.7400	   20.9921	    1.1704	   24.5700	
   66.0000	   19.3640	    2.0917	    2.1600	    0.7500	    1.4100	    0.0000	    0.0000	  543.0385	  532.3325	    0.2870	    5.9030	  156.0013	   10.4410	   20.7409	    8.0203	   45.0000	   36.7925	   75.1165	    4.7025	   97.3567	    1.8600	   18.6231	    5.1785	    0.1104	    0.6000	   12.0000	    8.2292	    0.7500	   22.6305	    1.0712	   24.2424	
   67.0000	   19.3643	    2.1268	    2.1100	    0.6800	    1.4300	    0.0000	    0.0000	  532.0140	  519.6113	    0.3132	    5.8511	  157.4770	   10.5283	   20.2461	    7.9748	   45.0000	   33.7711	   70.6360	    4.9401	  100.2540	    1.8600	   17.7766	    5.2504	    0.3312	    0.6000	   12.0000	    8.0469	    0.6800	   22.0911	    1.2103	   26.7380	
   68.0000	   19.3647	    2.1612	    2.0600	    0.6700	    1.3900	    0.0000	    0.0000	  478.9971	  461.1679	    0.2832	    4.8000	  131.5570	   10.0962	   18.7748	    7.3368	   45.0000	   33.3179	   78.5196	    4.5498	   90.7890	    1.8600	   15.0530	    4.5189	    0.0736	    0.6000	   12.0000	    6.8639	    0.6700	   21.9306	    1.2374	   27.1370	
   69.0000	   19.3650	    2.1990	    2.2700	    0.7500	    1.5200	    0.0000	    0.0000	  528.2703	  510.4634	    0.3074	    5.6188	  140.3893	   10.5367	   18.6837	    7.3172	   45.0000	   33.4107	   71.1345	    5.3608	   70.7530	    1.8600	   14.2985	    4.4092	    0.3680	    0.6000	   12.0000	    7.6159	    0.7500	   18.7745	    1.2912	   24.2424	
   70.0000	   19.3653	    2.2310	    1.9200	    0.8300	    1.0900	    0.0000	    0.0000	  750.4115	  593.4124	    0.2679	    6.3743	  190.8255	   13.0020	   26.1962	    8.1701	   45.0000	   32.3213	   59.1958	    7.1121	   61.8111	    1.8600	   22.7268	    7.7838	    0.3680	    0.6000	   12.0000	   11.5925	    0.8300	   19.6047	    1.1174	   21.9058	
   71.0000	   19.3655	    2.2393	    0.5000	    0.1600	    0.3400	    0.0000	    0.0000	   -5.3792	   50.1249	   -0.0058	    0.0583	    7.6906	    9.5267	   10.2337	    8.7104	   45.0000	   31.3688	       NaN	    3.4195	       NaN	    1.8600	    3.6620	    2.3227	    0.8833	    0.6000	   12.0000	    0.4458	    0.1600	       NaN	       NaN	       NaN	
   72.0000	   19.3658	    2.2757	    2.1800	    0.6200	    1.5600	    0.0000	    0.0000	  427.2346	  541.0697	    0.1827	    6.3943	  170.9625	    9.9982	   21.0664	    8.1375	   45.0000	   33.4262	   67.1418	    3.7477	  127.0391	    1.8600	   21.6962	    5.0810	    0.3128	    0.6000	   12.0000	    7.4988	    0.6200	   28.9329	    1.0136	   29.3255	
   73.0000	   19.3662	    2.3040	    1.7000	    0.6300	    1.0700	    0.0000	    0.0000	  450.7053	  373.2258	    0.1877	    3.3900	  113.0210	   10.3321	   20.1550	    8.0724	   45.0000	   33.0882	   96.3521	    4.2838	  135.0417	    1.8600	   19.1935	    5.5855	    0.2944	    0.6000	   12.0000	    6.5358	    0.6300	   29.3666	    0.9827	   28.8600	
   74.0000	   19.3662	    2.3113	    0.4400	    0.3200	    0.1200	    0.0000	    0.0000	   17.9709	   -0.7643	    0.1002	    0.0018	  -13.4277	    9.6600	   10.0775	    9.4395	   45.0000	   32.5444	       NaN	    4.7100	   75.8748	    1.8600	    2.3555	    2.0732	    0.8465	    0.6000	   12.0000	    0.6161	    0.3200	       NaN	       NaN	       NaN	
   75.0000	   19.3665	    2.3457	    2.0600	    0.6300	    1.4300	    0.0000	    0.0000	  443.7457	  486.9397	    0.0201	    5.3721	  155.8808	   10.1518	   19.6081	    7.6948	   45.0000	   34.7490	   77.5581	    4.5012	   80.1084	    1.8600	   17.0773	    5.0725	    0.2760	    0.6000	   12.0000	    7.5658	    0.6300	   22.5717	    1.2786	   28.8600	
   76.0000	   19.3668	    2.3717	    1.5600	    0.4600	    1.1000	    0.0000	    0.0000	  311.4849	  291.6473	    0.2552	    2.2523	   76.8113	    9.4558	   15.7542	    8.1050	   45.0000	   33.3642	  124.3319	    2.8998	  149.0137	    1.8600	   12.0535	    3.8463	    0.3312	    0.6000	   12.0000	    3.7479	    0.4600	   32.1607	    1.2290	   39.5257	
   77.0000	   19.3672	    2.4068	    2.1100	    0.6100	    1.5000	    0.0000	    0.0000	  395.6274	  415.0182	    0.2150	    4.3717	  118.1982	    9.6456	   18.1108	    7.9748	   45.0000	   34.1071	   89.3175	    4.0682	  102.4245	    1.8600	   14.5746	    3.6989	    0.1840	    0.6000	   12.0000	    5.4177	    0.6100	   26.9017	    1.1080	   29.8063	
   78.0000	   19.3675	    2.4420	    2.1100	    0.6200	    1.4900	    0.0000	    0.0000	  394.9302	  384.8795	    0.2317	    3.7724	  100.6825	    9.5953	   17.5510	    7.6753	   45.0000	   34.1718	   96.4945	    4.5088	   83.1640	    1.8600	   12.5135	    3.5663	    0.4233	    0.6000	   12.0000	    5.1384	    0.6200	   24.3531	    1.2042	   29.3255	
   79.0000	   19.3678	    2.4732	    1.8700	    0.4400	    1.4300	    0.0000	    0.0000	  307.0199	  296.5249	    0.2110	    2.4897	   73.1108	    9.1819	   16.8218	    7.9617	   45.0000	   34.2531	  125.5446	    2.7431	  150.1500	    1.8600	   14.5010	    3.3168	    0.2576	    0.6000	   12.0000	    3.8459	    0.4400	   37.7052	    1.0959	   41.3223	
   80.0000	   19.3682	    2.5123	    2.3500	    0.6000	    1.7500	    0.0000	    0.0000	  435.8833	  421.7990	    0.2228	    4.7127	  114.6355	    9.7473	   17.9676	    7.4149	   45.0000	   34.6487	   89.2773	    4.6615	  138.1279	    1.8600	   15.3291	    3.9757	    0.2392	    0.6000	   12.0000	    6.6032	    0.6000	   23.2147	    1.3053	   30.3030	
   81.0000	   19.3685	    2.5472	    2.0900	    0.4800	    1.6100	    0.0000	    0.0000	  347.2154	  339.1755	    0.1825	    3.1826	   86.1273	    9.2461	   17.1083	    7.5386	   45.0000	   34.1718	  109.4972	    3.2196	  126.9462	    1.8600	   10.6917	    2.3303	    0.0920	    0.6000	   12.0000	    3.0022	    0.4800	   35.6125	    1.0636	   37.8788	
   82.0000	   19.3690	    2.5853	    2.2900	    0.5300	    1.7600	    0.0000	    0.0000	  430.1966	  406.6526	    0.1654	    4.5015	  113.6084	    9.5089	   18.5926	    7.9682	   45.0000	   34.4663	   92.1149	    3.6622	  126.8705	    1.8600	   13.1576	    2.7919	    0.2392	    0.8010	   12.0000	    4.0120	    0.5300	   32.7959	    1.0460	   34.3053	
   83.0000	   19.3693	    2.6223	    2.2200	    0.7100	    1.5100	    0.0000	    0.0000	  585.5883	  519.3622	    0.1843	    6.1987	  162.5490	   10.8696	   26.6519	    8.0073	   45.0000	   31.7919	   66.5282	    6.2352	   76.8280	    1.8600	   21.1626	    4.9873	    0.3312	    0.8010	   12.0000	    7.7460	    0.7100	   27.3208	    0.9373	   25.6082	
   84.0000	   19.3697	    2.6567	    2.0600	    0.6900	    1.3700	    0.0000	    0.0000	  521.2933	  486.1103	    0.1903	    5.5449	  155.9608	   10.8404	   23.3318	    7.9552	   45.0000	   31.7308	   70.9423	    5.9277	   75.3976	    1.8600	   17.0037	    4.5452	    0.2392	    0.8010	   12.0000	    6.9422	    0.6900	   24.4930	    1.0758	   26.3505	
   85.0000	   19.3702	    2.7047	    2.8800	    0.8700	    2.0100	    0.0000	    0.0000	  580.4027	  596.4532	    0.2830	    7.6756	  154.0134	   10.1658	   21.3398	    7.7795	   45.0000	   28.9575	   52.7648	    5.0442	  117.7833	    1.8600	   15.4027	    3.7336	    0.1288	    0.8010	   12.0000	    7.2509	    0.8700	   21.2423	    0.9838	   20.8986	
   86.0000	   19.3705	    2.7398	    2.1100	    0.7600	    1.3500	    0.0000	    0.0000	  704.0783	  609.6214	    0.2638	    7.0151	  191.9818	   12.1163	   25.4020	    7.6297	   45.0000	   27.8552	   49.6598	    6.9965	   63.0466	    1.8600	   18.3654	    5.8597	    0.3128	    0.8010	   12.0000	    9.6039	    0.7600	   19.1228	    1.2510	   23.9234	
   87.0000	   19.3708	    2.7770	    2.2300	    0.7600	    1.4700	    0.0000	    0.0000	  623.8765	  638.1612	    0.2715	    7.6260	  197.8785	   11.2708	   25.1807	    8.1245	   45.0000	   27.1616	   46.2578	    5.5765	   82.9223	    1.8600	   18.8623	    5.2384	    0.3312	    0.8010	   12.0000	    8.3548	    0.7600	   22.5766	    1.0597	   23.9234	
   88.0000	   19.3710	    2.7915	    0.8700	    0.6500	    0.2200	    0.0000	    0.0000	  495.9271	   95.6100	    0.1767	    0.0000	  -12.1867	   13.5595	   21.8866	    8.9773	   45.0000	   26.8657	       NaN	    6.0434	  113.5893	    1.8600	   16.1204	    9.0213	    0.8649	    0.8010	   12.0000	    6.3146	    0.6500	   25.5286	    1.0957	   27.9720	
   89.0000	   19.3712	    2.8140	    1.3500	    0.0900	    1.2600	    0.0000	    0.0000	  -19.2068	  398.2638	    0.0000	    5.7819	  256.9722	    9.2529	   13.0851	    8.1180	   45.0000	   28.6123	   78.0803	    7.3448	       NaN	    1.8600	    5.9623	    1.2181	    0.0552	    0.8010	   12.0000	    0.4359	    0.0900	       NaN	       NaN	       NaN	
   90.0000	   19.3715	    2.8463	    1.9400	    0.6300	    1.3100	    0.0000	    0.0000	  504.1669	  481.2786	    0.2756	    5.2705	  154.4833	   10.6727	   21.6913	    8.0203	   45.0000	   29.3399	   66.2553	    4.9821	  102.5167	    1.8600	   15.6971	    4.5685	    0.0184	    0.8010	   12.0000	    6.0940	    0.6300	   25.7583	    1.1204	   28.8600	
   91.0000	   19.3717	    2.8625	    0.9700	    0.6900	    0.2800	    0.0000	    0.0000	  601.6054	  154.0247	    0.2498	    0.0263	  -13.8225	   15.4180	   27.7847	    9.1921	   45.0000	   29.9401	  211.2626	    7.8632	   57.3432	    1.8600	   21.9355	   11.4193	    0.6257	    0.8010	   12.0000	    8.6755	    0.6900	   25.2842	    1.0422	   26.3505	
   92.0000	   19.3718	    2.8837	    1.2700	    0.1100	    1.1600	    0.0000	    0.0000	  -18.7460	  370.5649	    0.0175	    4.0726	  191.5791	    9.6789	   14.4782	    8.1701	   45.0000	   31.4136	   92.1325	    8.6142	       NaN	    1.8600	    7.4345	    1.6781	    0.2392	    0.8010	   12.0000	    0.6695	    0.1100	       NaN	       NaN	       NaN	
   93.0000	   19.3720	    2.8968	    0.7900	    0.5800	    0.2100	    0.0000	    0.0000	  391.5608	   69.4259	    0.2158	    0.0000	  -16.3930	   12.6072	   18.7879	    8.9187	   45.0000	   32.6895	       NaN	    5.3608	  107.9711	    1.8600	   12.3111	    7.4375	    0.8281	    0.8010	   12.0000	    4.7040	    0.5800	   26.1717	    1.1978	   31.3480	
   94.0000	   19.3722	    2.9093	    0.7500	    0.0900	    0.6600	    0.0000	    0.0000	  -16.7387	  215.4947	    0.0000	    2.0065	  160.5189	    9.8162	   12.4471	    8.4370	   45.0000	   34.3184	  173.0812	    6.4507	       NaN	    1.8600	    6.0543	    2.0360	    0.5153	    0.8010	   12.0000	    0.4475	    0.0900	       NaN	       NaN	       NaN	
   95.0000	   19.3723	    2.9182	    0.5300	    0.1000	    0.4300	    0.0000	    0.0000	   -6.6734	   67.0526	   -0.0134	    0.1819	   22.1070	    9.1644	    9.8822	    8.5411	   45.0000	   35.8951	       NaN	    2.1678	       NaN	    1.8600	    2.9996	    1.3243	    0.4785	    0.8010	   12.0000	    0.2229	    0.1000	       NaN	       NaN	       NaN	
   96.0000	   19.3723	    2.9325	    0.8600	    0.6200	    0.2400	    0.0000	    0.0000	  443.5053	   92.2770	    0.1803	    0.0000	  -12.5794	   12.7982	   20.1029	    8.8666	   45.0000	   37.7358	       NaN	    5.5407	   96.9831	    1.8600	   14.0409	    7.9742	    1.1041	    0.8010	   12.0000	    5.4138	    0.6200	   25.9352	    1.1307	   29.3255	
   97.0000	   19.3727	    2.9548	    1.3400	    0.0900	    1.2500	    0.0000	    0.0000	  -19.6681	  348.8471	    0.0000	    5.2948	  237.0788	    9.2223	   13.6059	    8.1050	   45.0000	   40.3265	  125.6361	    8.4860	       NaN	    1.8600	    4.2325	    0.9760	    0.3312	    0.8010	   12.0000	    0.3030	    0.0900	       NaN	       NaN	       NaN	
   98.0000	   19.3728	    2.9825	    1.6600	    0.7100	    0.9500	    0.0000	    0.0000	  477.0779	  377.5636	    0.3066	    3.2718	  107.1774	   10.7364	   18.8139	    8.1245	   45.0000	   40.5954	  116.8547	    4.8811	   99.9810	    1.8600	   12.4031	    4.8687	    0.4233	    0.8010	   12.0000	    5.4817	    0.7100	   22.6266	    1.1318	   25.6082	
   99.0000	   19.3732	    3.0170	    2.0700	    1.0800	    0.9900	    0.0000	    0.0000	  673.9386	  543.0036	    0.2708	    5.5940	  154.2964	   13.2763	   19.9857	    8.2482	   45.0000	   41.6474	   83.3575	    7.1250	  130.5209	    1.8600	   13.5072	    7.0204	    0.4601	    0.8010	   12.0000	   11.7809	    1.0800	   11.4653	    1.4683	   16.8350	
  100.0000	   19.3733	    3.0277	    0.6400	    0.2400	    0.4000	    0.0000	    0.0000	   11.0977	   76.7589	    0.0346	    1.1731	  106.7352	   10.2400	   11.6789	    8.7104	   45.0000	   41.6281	       NaN	    3.9279	   46.6695	    1.8600	    5.0422	    2.9277	    0.9937	    0.8010	   12.0000	    0.9339	    0.2400	       NaN	       NaN	       NaN	
  101.0000	   19.3738	    3.0697	    2.5200	    0.6600	    1.8600	    0.0000	    0.0000	  491.1908	  642.3520	    0.1958	    8.3984	  195.3006	   10.3434	   23.6573	    7.3628	   45.0000	   43.1267	   72.9680	    4.6358	  115.1748	    1.8600	   18.8991	    4.2524	    0.2392	    0.8010	   12.0000	    7.3470	    0.6600	   25.7236	    1.0709	   27.5482	
  102.0000	   19.3742	    3.1120	    2.5400	    0.5900	    1.9500	    0.0000	    0.0000	  591.3442	  626.3107	    0.2028	    7.7548	  178.3918	   10.6254	   26.6129	    7.9878	   45.0000	   43.8356	   76.0671	    5.4806	  102.3047	    1.8600	   18.9727	    4.1441	    0.2024	    0.8010	   12.0000	    6.7066	    0.5900	   28.2896	    1.0893	   30.8166	
  103.0000	   19.3745	    3.1483	    2.1800	    0.6200	    1.5600	    0.0000	    0.0000	  526.6022	  511.2124	    0.2127	    5.8093	  154.0326	   10.4623	   22.2121	    7.9422	   45.0000	   44.7761	   95.1929	    5.2284	  112.3158	    1.8600	   16.2860	    4.2147	    0.1104	    0.8010	   12.0000	    6.5028	    0.6200	   25.0446	    1.1709	   29.3255	
  104.0000	   19.3750	    3.1883	    2.4000	    0.5700	    1.8300	    0.0000	    0.0000	  399.4307	  409.8941	    0.2518	    4.3342	  102.0617	    9.3370	   17.9936	    7.5516	   45.0000	   41.8744	  111.0289	    3.6379	  152.3165	    1.8600	   11.5750	    2.6012	    0.1104	    0.8010	   12.0000	    4.1472	    0.5700	   27.9103	    1.1429	   31.8979	
  105.0000	   19.3753	    3.2323	    2.6400	    0.8600	    1.7800	    0.0000	    0.0000	  772.5148	  696.9586	    0.1803	    8.6656	  192.8477	   11.6529	   27.8368	    7.9422	   45.0000	   40.9357	   63.8343	    7.0405	   69.9258	    1.8600	   19.6536	    4.7046	    0.2944	    0.8010	   12.0000	    9.1388	    0.8600	   21.5056	    0.9831	   21.1416	
  106.0000	   19.3800	    3.2737	    2.4800	    0.7100	    1.7700	    0.0000	    0.0000	  450.0305	  489.5129	    0.2350	    5.5213	  127.8958	    9.5421	   18.9962	    7.9748	   45.0000	   35.7675	   79.4116	    3.5271	  151.5578	    1.8600	   12.6975	    2.9372	    0.1840	    0.8010	   12.0000	    4.6670	    0.7100	   27.2071	    0.9412	   25.6082	
  107.0000	   19.3802	    3.3133	    2.3800	    0.7600	    1.6200	    0.0000	    0.0000	  668.3720	  611.4576	    0.2343	    7.2978	  178.0702	   11.4672	   26.5348	    7.9813	   45.0000	   29.3112	   52.0987	    7.0949	   65.2356	    1.8600	   20.5921	    5.3958	    0.2760	    0.8010	   12.0000	    9.5162	    0.7600	   21.6391	    1.1056	   23.9234	
  108.0000	   19.3803	    3.3513	    2.2800	    0.5900	    1.6900	    0.0000	    0.0000	  449.3794	  485.1621	    0.2390	    5.3695	  135.0136	    9.9175	   20.1940	    8.0073	   45.0000	   27.8940	   62.4861	    4.4277	  137.3631	    1.8600	   14.2065	    3.4710	    0.2024	    0.8010	   12.0000	    5.4257	    0.5900	   26.1837	    1.1769	   30.8166	
  109.0000	   19.3803	    3.3760	    1.4800	    0.5500	    0.9300	    0.0000	    0.0000	  339.1790	  253.3007	    0.1969	    1.4249	   49.7849	    9.6489	   18.3191	    8.0399	   45.0000	   26.9192	  115.5010	    3.3580	  184.8530	    1.8600	   12.5319	    3.5952	    0.3496	    0.8010	   12.0000	    3.2353	    0.5500	   38.7350	    0.8534	   33.0579	
  110.0000	   19.3805	    3.4112	    2.1100	    0.4500	    1.6600	    0.0000	    0.0000	  295.0493	  363.8842	    0.2019	    3.5084	   94.0234	    9.2103	   17.6161	    7.5842	   45.0000	   25.8373	   77.1692	    3.4219	  151.7033	    1.8600	   11.5750	    2.8080	    0.3680	    0.8010	   12.0000	    3.4716	    0.4500	   33.3422	    1.2118	   40.4040	
  111.0000	   19.3805	    3.4483	    2.2300	    0.7200	    1.5100	    0.0000	    0.0000	  573.9531	  515.4710	    0.2520	    5.7188	  147.0892	   10.8702	   19.7513	    8.0984	   45.0000	   26.3543	   55.5657	    6.1228	   78.4602	    1.8600	   10.8573	    3.7635	    0.3864	    0.8010	   12.0000	    5.8224	    0.7200	   18.6476	    1.3542	   25.2525	
  112.0000	   19.3807	    3.4822	    2.0300	    0.6700	    1.3600	    0.0000	    0.0000	  407.8099	  391.7549	    0.2453	    3.7644	  104.0121	    9.7111	   16.4052	    7.9552	   45.0000	   26.7592	   74.2365	    4.3265	  110.6455	    1.8600	    9.0171	    3.0866	    0.2760	    0.8010	   12.0000	    4.2370	    0.6700	   21.2817	    1.2751	   27.1370	
  113.0000	   19.3807	    3.5280	    2.7500	    0.7800	    1.9700	    0.0000	    0.0000	  470.7923	  495.5263	    0.2485	    5.8856	  122.9909	    9.5965	   17.9936	    7.4019	   45.0000	   26.9596	   59.1297	    4.4182	  123.6650	    1.8600	   11.5198	    2.7753	    0.1840	    0.8010	   12.0000	    5.3627	    0.7800	   21.4814	    1.0851	   23.3100	
  114.0000	   19.3808	    3.5658	    2.2700	    0.4900	    1.7800	    0.0000	    0.0000	  404.4108	  400.5258	    0.2159	    4.4537	  112.0112	    9.5803	   21.4830	    8.0268	   45.0000	   26.4966	   71.8983	    3.7823	  150.2911	    1.8600	   13.7281	    2.8025	    0.2944	    0.8010	   12.0000	    3.6007	    0.4900	   38.1264	    0.9732	   37.1058	
  115.0000	   19.3808	    3.6033	    2.2500	    0.7700	    1.4800	    0.0000	    0.0000	  632.7084	  545.6987	    0.1988	    6.3814	  164.8703	   11.2530	   24.4906	    7.9552	   45.0000	   26.9865	   53.7469	    6.9882	   65.3512	    1.8600	   18.2182	    5.0461	    0.2208	    0.8010	   12.0000	    8.6634	    0.7700	   21.0289	    1.1229	   23.6128	
  116.0000	   19.3810	    3.6403	    2.2200	    0.6600	    1.5600	    0.0000	    0.0000	  470.1301	  486.1623	    0.2077	    5.5638	  144.7598	   10.1515	   20.8971	    8.0333	   45.0000	   26.9542	   60.2565	    5.0088	   94.0959	    1.8600	   14.5562	    3.7827	    0.0920	    0.8010	   12.0000	    5.7545	    0.6600	   25.2954	    1.0891	   27.5482	
  117.0000	   19.3810	    3.6542	    0.8300	    0.5900	    0.2400	    0.0000	    0.0000	  431.5297	   93.7529	    0.2792	    0.0000	  -20.1814	   12.3117	   18.6446	    8.6843	   45.0000	   27.2727	       NaN	    5.7690	   71.8128	    1.8600	   11.6670	    7.0303	    1.3434	    0.8010	   12.0000	    4.6368	    0.5900	   25.1617	    1.2247	   30.8166	
  118.0000	   19.3812	    3.6747	    1.2300	    0.0900	    1.1400	    0.0000	    0.0000	  -12.3894	  271.3947	    0.0000	    3.6051	  175.8601	    9.1500	   13.0460	    8.0268	   45.0000	   29.3399	  117.4941	    7.4740	       NaN	    1.8600	    6.3120	    1.3015	    0.0000	    0.8010	   12.0000	    0.4601	    0.0900	       NaN	       NaN	       NaN	
  119.0000	   19.3812	    3.7102	    2.1300	    0.6700	    1.4600	    0.0000	    0.0000	  474.6229	  463.0676	    0.2030	    5.1076	  138.1577	   10.1614	   18.9832	    7.9813	   45.0000	   30.4428	   71.4496	    4.9271	  103.9283	    1.8600	   12.2743	    3.5629	    0.1472	    0.8010	   12.0000	    5.4728	    0.6700	   22.4277	    1.2100	   27.1370	
  120.0000	   19.3813	    3.7480	    2.2700	    0.7300	    1.5400	    0.0000	    0.0000	  564.6848	  545.8836	    0.2763	    6.5256	  165.1797	   11.0119	   23.4881	    7.9682	   45.0000	   29.9252	   59.5794	    6.6738	   69.7248	    1.8600	   16.6172	    4.4760	    0.0368	    0.8010	   12.0000	    7.5908	    0.7300	   21.8912	    1.1377	   24.9066	
  121.0000	   19.3813	    3.7658	    1.0700	    0.7700	    0.3000	    0.0000	    0.0000	  597.9032	  158.4237	    0.2322	    0.0276	  -11.4751	   13.4915	   22.1080	    8.9122	   45.0000	   29.6883	  203.6687	    6.3558	   87.1736	    1.8600	   15.8811	    8.4305	    0.8097	    0.8010	   12.0000	    7.2525	    0.7700	   21.8974	    1.0783	   23.6128	
  122.0000	   19.3815	    3.7878	    1.3200	    0.0900	    1.2300	    0.0000	    0.0000	  -17.4751	  382.6240	    0.0188	    4.6658	  211.2252	    9.1421	   12.5252	    8.0789	   45.0000	   31.0150	   88.0967	    6.8564	       NaN	    1.8600	    3.3124	    0.7980	    0.2944	    0.8010	   12.0000	    0.2432	    0.0900	       NaN	       NaN	       NaN	
  123.0000	   19.3815	    3.8222	    2.0600	    0.5800	    1.4800	    0.0000	    0.0000	  473.6099	  489.8207	    0.3398	    5.6938	  155.9416	   10.4441	   22.0298	    7.9422	   45.0000	   32.4006	   71.8911	    5.1653	  107.3939	    1.8600	   16.4516	    4.4640	    0.3496	    0.8010	   12.0000	    6.2816	    0.5800	   26.1901	    1.1969	   31.3480	
  124.0000	   19.3817	    3.8565	    2.0600	    0.7000	    1.3600	    0.0000	    0.0000	  511.6187	  480.2182	    0.2456	    5.2594	  146.0339	   10.5683	   21.1315	    8.0008	   45.0000	   32.3529	   73.2208	    5.5282	   87.6471	    1.8600	   14.5010	    4.2336	    0.2944	    0.8010	   12.0000	    6.4223	    0.7000	   22.5791	    1.1504	   25.9740	
  125.0000	   19.3820	    3.8907	    2.0500	    0.5000	    1.5500	    0.0000	    0.0000	  310.7112	  336.4039	    0.1908	    3.0949	   84.9990	    9.2188	   17.4859	    7.4409	   45.0000	   32.0570	  103.5669	    3.5287	  147.3740	    1.8600	   11.4462	    2.9023	    0.3312	    0.8010	   12.0000	    3.5527	    0.5000	   32.2180	    1.1287	   36.3636	
  126.0000	   19.3823	    3.9248	    2.0500	    0.4600	    1.5900	    0.0000	    0.0000	  346.7383	  345.4566	    0.1741	    3.3813	   93.8691	    9.2388	   19.4258	    7.9097	   45.0000	   33.0882	  104.0973	    2.8445	  157.1929	    1.8600	   11.5198	    2.3721	    0.1288	    0.8010	   12.0000	    2.6203	    0.4600	   43.9638	    0.8991	   39.5257	
  127.0000	   19.3827	    3.9590	    2.0500	    0.6200	    1.4300	    0.0000	    0.0000	  483.3502	  429.8777	    0.2320	    4.5340	  125.9136	    9.9466	   21.4439	    7.9357	   45.0000	   33.4262	   84.5087	    4.2901	  123.1578	    1.8600	   15.6603	    3.8829	    0.2576	    0.8010	   12.0000	    5.2354	    0.6200	   29.9121	    0.9804	   29.3255	
  128.0000	   19.3830	    3.9932	    2.0500	    0.5700	    1.4800	    0.0000	    0.0000	  369.1551	  368.6005	    0.2138	    3.6772	  101.3660	    9.3928	   17.6681	    7.9682	   45.0000	   33.7395	   99.4813	    3.5445	  151.7991	    1.8600	   11.5934	    2.9819	    0.2576	    0.8010	   12.0000	    3.8480	    0.5700	   30.1284	    1.0587	   31.8979	
  129.0000	   19.3833	    4.0288	    2.1400	    0.6000	    1.5400	    0.0000	    0.0000	  412.4182	  394.8458	    0.2084	    4.0732	  108.3598	    9.5192	   17.3947	    7.9487	   45.0000	   32.4484	   89.3151	    3.9070	  134.7793	    1.8600	   10.8941	    2.9608	    0.2576	    0.8010	   12.0000	    4.2806	    0.6000	   25.4498	    1.1907	   30.3030	
  130.0000	   19.3837	    4.0628	    2.0400	    0.5500	    1.4900	    0.0000	    0.0000	  391.2410	  367.5448	    0.2444	    3.6893	  101.3217	    9.5244	   16.5875	    8.0138	   45.0000	   31.0588	   91.8405	    4.1369	  122.3940	    1.8600	    9.8636	    2.9906	    0.2760	    0.8010	   12.0000	    4.0490	    0.5500	   24.3603	    1.3570	   33.0579	
  131.0000	   19.3838	    4.0782	    0.9200	    0.6200	    0.3000	    0.0000	    0.0000	  487.6196	  118.9689	    0.2088	    0.0000	  -13.6177	   12.9613	   22.3163	    8.6648	   45.0000	   31.1909	  284.9405	    6.4108	   86.8196	    1.8600	   17.0957	    8.7733	    0.8649	    0.8010	   12.0000	    5.9931	    0.6200	   28.5258	    1.0280	   29.3255	
  132.0000	   19.3840	    4.0983	    1.2100	    0.0800	    1.1300	    0.0000	    0.0000	   -7.5334	  284.5797	    0.0024	    4.2790	  212.0614	    9.0285	   12.1477	    7.9682	   45.0000	   32.6087	  124.5343	    6.3706	       NaN	    1.8600	    4.5638	    1.1592	    0.3312	    0.8010	   12.0000	    0.2866	    0.0800	       NaN	       NaN	       NaN	
  133.0000	   19.3845	    4.1357	    2.2400	    0.7500	    1.4900	    0.0000	    0.0000	  593.9479	  564.9731	    0.2523	    6.9097	  178.3247	   11.0217	   24.0089	    7.7599	   45.0000	   34.2531	   65.8918	    6.2474	   72.4630	    1.8600	   17.5925	    4.8592	    0.2576	    0.8010	   12.0000	    8.1251	    0.7500	   21.6520	    1.1196	   24.2424	
  134.0000	   19.3848	    4.1770	    2.4800	    0.8000	    1.6800	    0.0000	    0.0000	  559.2114	  586.5610	    0.2266	    7.2701	  170.4080	   10.3344	   22.8761	    7.9748	   45.0000	   31.6243	   58.5960	    4.9008	   93.4351	    1.8600	   16.8564	    4.1943	    0.3864	    0.8010	   12.0000	    7.0069	    0.8000	   24.0568	    0.9447	   22.7273	
  135.0000	   19.3850	    4.1935	    0.9900	    0.7800	    0.2100	    0.0000	    0.0000	  614.6023	   88.8824	    0.2126	    0.0000	  -12.8826	   14.4371	   23.5271	    8.7039	   45.0000	   31.0005	       NaN	    6.9514	   88.4604	    1.8600	   18.1446	   10.1551	    1.0305	    0.8010	   12.0000	    8.1869	    0.7800	   22.1630	    1.0518	   23.3100	
  136.0000	   19.3853	    4.2210	    1.6500	    0.2400	    1.4100	    0.0000	    0.0000	  -21.6305	  429.7751	    0.0000	    6.6106	  240.3860	    9.6857	   14.6866	    7.0829	   45.0000	   32.6409	   82.5431	    5.7812	       NaN	    1.8600	    8.2074	    2.1557	    0.1840	    0.8010	   12.0000	    1.7428	    0.2400	   47.0936	    1.6087	   75.7576	
  137.0000	   19.3855	    4.2503	    1.7600	    0.5600	    1.2000	    0.0000	    0.0000	  526.4297	  494.9038	    0.2881	    5.3755	  173.4349	   11.1240	   23.3709	    8.0268	   45.0000	   32.9218	   72.2973	    5.3180	   86.1954	    1.8600	   15.1450	    4.7876	    0.2024	    0.8010	   12.0000	    5.2560	    0.5600	   28.8150	    1.1268	   32.4675	
  138.0000	   19.3858	    4.2805	    1.8100	    0.5800	    1.2300	    0.0000	    0.0000	  430.4235	  427.2562	    0.2179	    4.3716	  137.6908	   10.2193	   20.0117	    7.7729	   45.0000	   33.3642	   84.8696	    4.5622	  113.9040	    1.8600	   13.9121	    4.1674	    0.3128	    0.8010	   12.0000	    5.1923	    0.5800	   26.7938	    1.1700	   31.3480	
  139.0000	   19.3862	    4.3042	    1.4200	    0.6200	    0.8000	    0.0000	    0.0000	  529.1351	  378.3958	    0.3180	    3.0135	  113.8961	   12.0091	   23.1235	    8.1831	   45.0000	   33.7395	   96.9061	    6.5547	   56.0790	    1.8600	   16.0283	    6.6378	    0.7361	    0.8010	   12.0000	    6.4277	    0.6200	   24.9363	    1.1760	   29.3255	
  140.0000	   19.3862	    4.3150	    0.6500	    0.1800	    0.4700	    0.0000	    0.0000	    5.2102	   59.1848	   -0.0029	    0.5877	   54.5168	    9.2823	   11.3144	    7.4084	   45.0000	   34.7658	       NaN	    2.4078	   21.1628	    1.8600	    5.8519	    2.3696	    0.6073	    0.8010	   12.0000	    0.7831	    0.1800	       NaN	       NaN	       NaN	
  141.0000	   19.3865	    4.3475	    1.9500	    0.4500	    1.5000	    0.0000	    0.0000	  392.1309	  473.7097	    0.2204	    5.6612	  167.4108	    9.9767	   21.4179	    7.9357	   45.0000	   36.5169	   83.7800	    3.6817	  123.1350	    1.8600	   13.3784	    3.2841	    0.4417	    0.8010	   12.0000	    3.8522	    0.4500	   34.7290	    1.1634	   40.4040	
  142.0000	   19.3868	    4.3803	    1.9700	    0.6200	    1.3500	    0.0000	    0.0000	  444.2940	  424.8851	    0.2857	    4.4174	  125.8404	    9.8166	   19.7253	    7.9617	   45.0000	   36.6886	   93.8468	    3.9821	  115.7537	    1.8600	   13.5072	    3.6929	    0.4601	    0.8010	   12.0000	    4.7823	    0.6200	   28.2443	    1.0383	   29.3255	
  143.0000	   19.3872	    4.4158	    2.1300	    0.5500	    1.5800	    0.0000	    0.0000	  414.2129	  423.5716	    0.2291	    4.6598	  124.8077	    9.8032	   20.8971	    7.9748	   45.0000	   36.9844	   94.8966	    4.5057	  130.6458	    1.8600	   15.5683	    3.6163	    0.0000	    0.8010	   12.0000	    5.1908	    0.5500	   29.9920	    1.1022	   33.0579	
  144.0000	   19.3877	    4.4590	    2.5900	    0.8700	    1.7200	    0.0000	    0.0000	  616.3202	  566.8323	    0.1764	    6.7623	  152.5678	   10.3371	   21.7304	    7.3693	   45.0000	   35.5380	   68.1393	    5.1170	  106.8102	    1.8600	   15.6971	    4.0170	    0.3496	    0.8010	   12.0000	    7.2681	    0.8700	   21.5974	    0.9676	   20.8986	
  145.0000	   19.3880	    4.4882	    1.7500	    0.5300	    1.2200	    0.0000	    0.0000	  466.3104	  420.6052	    0.2219	    4.3750	  142.3904	   10.4655	   22.9673	    8.0594	   45.0000	   33.2717	   85.9726	    4.6354	  110.5267	    1.8600	   15.1082	    4.1696	    0.3312	    0.8010	   12.0000	    4.4387	    0.5300	   34.0374	    1.0079	   34.3053	
  146.0000	   19.3883	    4.5208	    1.9600	    0.6400	    1.3200	    0.0000	    0.0000	  437.8883	  413.0213	    0.2002	    4.1168	  119.8953	   10.0231	   19.8034	    7.2066	   45.0000	   34.0426	   89.5796	    4.7199	   98.7888	    1.8600	   13.7281	    3.9623	    0.4785	    0.8010	   12.0000	    5.2080	    0.6400	   26.3595	    1.0778	   28.4091	
  147.0000	   19.3887	    4.5538	    1.9800	    0.4400	    1.5400	    0.0000	    0.0000	  381.7469	  421.7305	    0.2613	    4.7530	  136.1125	    9.6549	   22.3814	    7.8706	   45.0000	   34.9006	   89.9410	    3.3248	  152.3949	    1.8600	   15.0530	    3.4303	    0.3496	    0.8010	   12.0000	    3.6374	    0.4400	   41.3842	    0.9985	   41.3223	
  148.0000	   19.3890	    4.5893	    2.1300	    0.5600	    1.5700	    0.0000	    0.0000	  375.2251	  377.2512	    0.2596	    3.8100	  100.0134	    9.2864	   18.5405	    7.8706	   45.0000	   33.3025	   95.9413	    3.3500	  164.9514	    1.8600	   12.8264	    2.9682	    0.1656	    0.8010	   12.0000	    3.9369	    0.5600	   32.5800	    0.9965	   32.4675	
  149.0000	   19.3893	    4.6275	    2.2900	    0.5900	    1.7000	    0.0000	    0.0000	  463.4048	  437.7347	    0.2578	    4.7555	  117.8415	    9.7397	   19.4258	    7.3628	   45.0000	   32.4484	   80.5641	    4.6760	  115.6338	    1.8600	   13.0104	    3.6521	    0.2024	    0.8010	   12.0000	    5.3008	    0.5900	   24.5443	    1.2555	   30.8166	
  150.0000	   19.3897	    4.6642	    2.2000	    0.4900	    1.7100	    0.0000	    0.0000	  399.1698	  390.6043	    0.2343	    4.1006	  105.4454	    9.3143	   20.3242	    7.4019	   45.0000	   31.7003	   88.2035	    3.3302	  133.8619	    1.8600	   12.4583	    2.5530	    0.2208	    0.8010	   12.0000	    3.1258	    0.4900	   39.8564	    0.9310	   37.1058	
  151.0000	   19.3902	    4.7030	    2.3300	    0.7500	    1.5800	    0.0000	    0.0000	  770.0024	  667.4757	    0.2220	    8.3938	  210.4327	   12.2771	   29.2429	    8.0203	   45.0000	   28.6396	   46.6328	    7.8445	   63.0362	    1.8600	   21.4938	    5.7090	    0.1840	    0.8010	   12.0000	    9.9539	    0.7500	   21.5934	    1.1227	   24.2424	
  152.0000	   19.3905	    4.7375	    2.0700	    0.6500	    1.4200	    0.0000	    0.0000	  503.0068	  525.4806	    0.2596	    5.9039	  163.6021	   10.5160	   22.3423	    7.9357	   45.0000	   28.1294	   58.1786	    5.0826	  103.5014	    1.8600	   16.4516	    4.4384	    0.3864	    0.8010	   12.0000	    6.5333	    0.6500	   25.1813	    1.1108	   27.9720	
  153.0000	   19.3908	    4.7753	    2.2700	    0.7300	    1.5400	    0.0000	    0.0000	  587.6499	  571.5976	    0.2115	    6.7342	  172.4084	   10.9970	   24.2042	    7.9292	   45.0000	   27.9981	   53.2351	    6.4135	   73.3698	    1.8600	   18.0710	    4.9508	    0.0000	    0.8010	   12.0000	    8.2391	    0.7300	   21.9331	    1.1356	   24.9066	
  154.0000	   19.3912	    4.8113	    2.1600	    0.7300	    1.4300	    0.0000	    0.0000	  624.9512	  596.2473	    0.2331	    6.9462	  186.4748	   11.4630	   24.8942	    7.8576	   45.0000	   27.8164	   50.7031	    6.5684	   75.6788	    1.8600	   18.1446	    5.2058	    0.1656	    0.8010	   12.0000	    8.6186	    0.7300	   21.0529	    1.1831	   24.9066	
  155.0000	   19.3915	    4.8485	    2.2300	    0.8000	    1.4300	    0.0000	    0.0000	  634.4260	  624.0953	    0.2841	    7.1697	  185.2628	   11.5408	   22.9933	    7.9552	   45.0000	   28.3822	   49.4259	    6.4025	   69.0057	    1.8600	   16.2308	    5.2411	    0.2760	    0.8010	   12.0000	    9.0223	    0.8000	   17.9895	    1.2634	   22.7273	
  156.0000	   19.3920	    4.8903	    2.5100	    0.7900	    1.7200	    0.0000	    0.0000	  608.3794	  649.9068	    0.2657	    7.8070	  180.2699	   10.9181	   22.6808	    7.9097	   45.0000	   27.7521	   46.4092	    5.9422	   90.8354	    1.8600	   16.8748	    4.7140	    0.1472	    0.8010	   12.0000	    8.6650	    0.7900	   19.4748	    1.1818	   23.0150	
  157.0000	   19.3923	    4.9223	    1.9200	    0.5900	    1.3300	    0.0000	    0.0000	  421.3096	  419.6841	    0.2485	    4.0304	  118.1835	    9.8498	   18.7488	    7.8706	   45.0000	   26.7459	   69.2619	    4.2116	  132.8676	    1.8600	   12.6791	    3.5950	    0.2760	    0.8010	   12.0000	    4.6842	    0.5900	   27.0679	    1.1385	   30.8166	
  158.0000	   19.3927	    4.9572	    2.0900	    0.7000	    1.3900	    0.0000	    0.0000	  568.5199	  523.0831	    0.2689	    5.7272	  156.6951	   10.9845	   26.0791	    7.9422	   45.0000	   27.1370	   56.3834	    6.1720	   75.0403	    1.8600	   20.6657	    5.1533	    0.2760	    0.8010	   12.0000	    7.6620	    0.7000	   26.9719	    0.9630	   25.9740	
  159.0000	   19.3955	    4.9923	    2.1100	    0.6900	    1.4200	    0.0000	    0.0000	  495.6353	  497.2769	    0.2246	    5.3458	  145.6242	   10.4290	   19.9076	    7.9617	   45.0000	   27.1862	   59.4169	    5.5231	   85.4528	    1.8600	   12.3295	    3.8346	    0.1288	    0.8010	   12.0000	    6.0184	    0.6900	   20.4865	    1.2862	   26.3505	
  160.0000	   19.3955	    5.0280	    2.1400	    0.5800	    1.5600	    0.0000	    0.0000	  410.6729	  419.4463	    0.1853	    4.2996	  115.3542	    9.7376	   18.7228	    7.9031	   45.0000	   27.4098	   71.0213	    4.5197	  120.7649	    1.8600	   12.1087	    3.5067	    0.3680	    0.8010	   12.0000	    4.6522	    0.5800	   26.0280	    1.2044	   31.3480	
  161.0000	   19.3957	    5.0713	    2.6000	    0.7400	    1.8600	    0.0000	    0.0000	  443.8631	  454.1817	    0.1699	    4.9512	  110.3387	    9.6886	   18.3061	    7.8771	   45.0000	   27.4851	   65.7699	    5.6135	   78.6416	    1.8600	   11.0597	    2.8948	    0.2392	    0.8010	   12.0000	    5.3960	    0.7400	   20.4962	    1.1988	   24.5700	
  162.0000	   19.3957	    5.1045	    1.9900	    0.5700	    1.4200	    0.0000	    0.0000	  412.0650	  361.2356	    0.1970	    3.4878	   99.2217	    9.7320	   18.5275	    7.9422	   45.0000	   26.9596	   81.1114	    4.5598	  130.6431	    1.8600	   12.5503	    3.4572	    0.3496	    0.8010	   12.0000	    4.6449	    0.5700	   27.0195	    1.1806	   31.8979	
  163.0000	   19.3958	    5.1442	    2.3800	    0.6500	    1.7300	    0.0000	    0.0000	  394.0510	  398.9713	    0.2093	    4.1597	   99.5917	    9.3044	   17.4468	    7.8641	   45.0000	   27.2480	   74.2253	    4.0500	  137.2347	    1.8600	   11.4646	    2.7664	    0.3312	    0.8010	   12.0000	    4.3081	    0.6500	   26.6120	    1.0511	   27.9720	
  164.0000	   19.3958	    5.1838	    2.3800	    0.5600	    1.8200	    0.0000	    0.0000	  306.5342	  308.5581	    0.2212	    2.7038	   62.5863	    8.6687	   14.8688	    8.0203	   45.0000	   27.1125	   95.4976	    2.0433	  221.8512	    1.8600	    8.3362	    1.7467	    0.2760	    0.8010	   12.0000	    2.3940	    0.5600	   34.8207	    0.9324	   32.4675	
  165.0000	   19.3960	    5.2312	    2.8400	    0.7400	    2.1000	    0.0000	    0.0000	  587.3177	  552.6147	    0.2099	    6.8149	  139.5423	   10.1150	   21.4700	    7.8706	   45.0000	   26.8390	   52.7841	    6.3984	   79.4238	    1.8600	   14.3353	    3.4704	    0.1656	    0.8010	   12.0000	    7.4027	    0.7400	   19.3651	    1.2688	   24.5700	
  166.0000	   19.3960	    5.2780	    2.8100	    0.7300	    2.0800	    0.0000	    0.0000	  527.4716	  529.2180	    0.2157	    6.4792	  133.7406	    9.7469	   20.4674	    7.5060	   45.0000	   26.4059	   54.2282	    5.3860	   88.7303	    1.8600	   13.3784	    3.0638	    0.2760	    0.8010	   12.0000	    6.1140	    0.7300	   21.8818	    1.1382	   24.9066	
  167.0000	   19.3963	    5.3190	    2.4600	    0.8100	    1.6500	    0.0000	    0.0000	  615.9078	  564.5535	    0.2022	    6.9177	  163.7928	   10.6656	   19.3607	    7.9162	   45.0000	   25.3046	   48.7140	    5.8880	   83.2940	    1.8600	   12.2743	    4.0088	    0.0920	    0.8010	   12.0000	    7.6439	    0.8100	   16.0576	    1.3979	   22.4467	
  168.0000	   19.3967	    5.3630	    2.6400	    0.7100	    1.9300	    0.0000	    0.0000	  513.5399	  528.2427	    0.2068	    6.3984	  140.7192	    9.7093	   18.8399	    7.3758	   45.0000	   24.8733	   51.1752	    4.7650	  120.4563	    1.8600	   11.9983	    3.1414	    0.1288	    0.8010	   12.0000	    5.7114	    0.7100	   21.0075	    1.2190	   25.6082	
  169.0000	   19.3970	    5.3983	    2.1200	    0.5900	    1.5300	    0.0000	    0.0000	  510.3466	  465.7271	    0.2174	    5.3377	  144.9145	   10.2520	   22.5637	    7.2261	   45.0000	   23.8806	   55.7280	    4.9327	  108.6472	    1.8600	   15.2371	    3.6402	    0.3312	    0.8010	   12.0000	    5.0562	    0.5900	   30.1354	    1.0226	   30.8166	
  170.0000	   19.3973	    5.4303	    1.9200	    0.5100	    1.4100	    0.0000	    0.0000	  419.0471	  407.4308	    0.2247	    4.2218	  124.9094	    9.7491	   20.7148	    7.8836	   45.0000	   24.3024	   64.8269	    3.7580	  123.0719	    1.8600	   12.6055	    3.1700	    0.2760	    0.8010	   12.0000	    3.5207	    0.5100	   35.8039	    0.9957	   35.6506	
  171.0000	   19.3977	    5.4655	    2.1100	    0.5900	    1.5200	    0.0000	    0.0000	  402.0034	  396.8980	    0.2736	    4.0929	  108.6071	    9.4907	   17.9025	    7.8771	   45.0000	   25.0696	   68.6481	    3.9217	  146.2549	    1.8600	   11.7774	    2.9795	    0.2944	    0.8010	   12.0000	    4.3177	    0.5900	   27.2770	    1.1298	   30.8166	
  172.0000	   19.3982	    5.5052	    2.3800	    0.6500	    1.7300	    0.0000	    0.0000	  497.2637	  477.9809	    0.2300	    5.5479	  134.0657	   10.0476	   19.5300	    7.8511	   45.0000	   24.9307	   56.6871	    5.3665	  114.9466	    1.8600	   13.6361	    3.6392	    0.2576	    0.8010	   12.0000	    6.1152	    0.6500	   22.2988	    1.2544	   27.9720	
  173.0000	   19.3985	    5.5348	    1.7800	    0.7000	    1.0800	    0.0000	    0.0000	  627.8067	  478.2302	    0.1939	    5.1246	  166.2038	   12.0472	   27.4722	    7.9878	   45.0000	   24.9307	   56.6575	    7.0322	   73.1002	    1.8600	   22.3771	    6.7299	    0.3680	    0.8010	   12.0000	    8.7985	    0.7000	   25.4329	    1.0213	   25.9740	
  174.0000	   19.3985	    5.5452	    0.6200	    0.2800	    0.3400	    0.0000	    0.0000	    8.2302	   40.8814	    0.0328	    0.4084	   36.3471	    9.4343	    9.9733	    8.4565	   45.0000	   25.6410	       NaN	    2.9369	   36.4135	    1.8600	    3.0916	    1.7619	    0.7177	    0.8010	   12.0000	    0.6426	    0.2800	       NaN	       NaN	       NaN	
  175.0000	   19.3988	    5.5703	    1.5100	    0.6400	    0.8700	    0.0000	    0.0000	  452.4576	  362.3476	    0.1575	    3.0162	  113.5903	   10.9170	   20.3763	    8.0594	   45.0000	   27.6753	   83.0092	    5.0175	  116.8314	    1.8600	   14.9610	    5.5504	    0.4969	    0.8010	   12.0000	    5.8217	    0.6400	   25.6986	    1.1055	   28.4091	
  176.0000	   19.3990	    5.5878	    1.0500	    0.3600	    0.6900	    0.0000	    0.0000	   84.6616	  144.6698	    0.2324	    1.5133	   73.1929	    9.9374	   13.9054	    7.5776	   45.0000	   29.4840	  221.4972	    5.3145	   49.0639	    1.8600	    8.0970	    3.2327	    0.5337	    0.8010	   12.0000	    2.1856	    0.3600	   37.0464	    1.3633	   50.5051	
  177.0000	   19.3993	    5.6312	    2.6000	    0.8000	    1.8000	    0.0000	    0.0000	  618.7418	  671.0851	    0.2287	    8.7965	  197.7187	   10.7886	   22.2251	    7.8641	   45.0000	   30.8411	   49.9473	    5.5156	   80.8577	    1.8600	   15.7891	    4.4424	    0.2208	    0.8010	   12.0000	    8.6560	    0.8000	   18.2406	    1.2460	   22.7273	
  178.0000	   19.3998	    5.6702	    2.3400	    0.6600	    1.6800	    0.0000	    0.0000	  469.8250	  486.9152	    0.2207	    5.6462	  139.1162	    9.7030	   21.7694	    7.3107	   45.0000	   31.1468	   69.5215	    3.9309	  144.4044	    1.8600	   16.2492	    3.8275	    0.3312	    0.8010	   12.0000	    5.3534	    0.6600	   30.3530	    0.9076	   27.5482	
  179.0000	   19.4002	    5.7013	    1.8700	    0.4600	    1.4100	    0.0000	    0.0000	  363.5126	  351.1723	    0.1671	    3.5040	  107.0690	    9.5112	   20.1419	    7.8966	   45.0000	   31.3242	   96.9435	    3.4315	  141.7832	    1.8600	   12.2191	    2.7185	    0.2576	    0.8010	   12.0000	    2.9156	    0.4600	   41.9099	    0.9431	   39.5257	
  180.0000	   19.4005	    5.7362	    2.0900	    0.6400	    1.4500	    0.0000	    0.0000	  457.7340	  421.0257	    0.2169	    4.5310	  123.8509	    9.7401	   20.5195	    7.8836	   45.0000	   32.5123	   83.9264	    3.9827	  134.6461	    1.8600	   14.9610	    3.5764	    0.3496	    0.8010	   12.0000	    4.8299	    0.6400	   30.9761	    0.9171	   28.4091	
  181.0000	   19.4008	    5.7705	    2.0600	    0.6000	    1.4600	    0.0000	    0.0000	  423.5286	  400.9752	    0.2767	    4.2213	  114.8912	    9.6136	   18.4103	    7.9682	   45.0000	   32.5604	   88.2535	    3.9386	  146.5975	    1.8600	   12.5319	    3.4365	    0.2024	    0.8010	   12.0000	    4.5658	    0.6000	   27.4475	    1.1040	   30.3030	
  182.0000	   19.4010	    5.7860	    0.9300	    0.6400	    0.2900	    0.0000	    0.0000	  495.3645	  127.9858	    0.2897	    0.0000	  -18.6887	   12.9395	   19.3217	    8.6258	   45.0000	   32.3371	  274.5989	    6.0672	   94.8469	    1.8600	   12.6607	    7.7774	    0.9753	    0.8010	   12.0000	    5.7474	    0.6400	   22.0287	    1.2896	   28.4091	
  183.0000	   19.4012	    5.8038	    1.0700	    0.3800	    0.6900	    0.0000	    0.0000	   -7.3933	  203.4978	    0.0012	    2.6237	  147.0533	   10.5681	   12.7596	    8.2677	   45.0000	   33.7395	  180.1930	    5.2346	       NaN	    1.8600	    8.2810	    3.4240	    0.1656	    0.8010	   12.0000	    2.4091	    0.3800	   34.3734	    1.3920	   47.8469	
  184.0000	   19.4015	    5.8398	    2.1600	    0.7200	    1.4400	    0.0000	    0.0000	  532.9897	  593.6763	    0.2459	    7.3239	  196.6111	   11.1752	   24.0610	    7.7664	   45.0000	   35.4680	   64.9301	    6.1845	   70.8864	    1.8600	   17.2061	    4.8215	    0.2576	    0.8010	   12.0000	    7.7299	    0.7200	   22.2593	    1.1345	   25.2525	
  185.0000	   19.4018	    5.8762	    2.1800	    0.7500	    1.4300	    0.0000	    0.0000	  646.7422	  639.4727	    0.3424	    7.7422	  203.6658	   11.7918	   25.2718	    7.8966	   45.0000	   35.8566	   60.9405	    6.7396	   65.4450	    1.8600	   19.2303	    5.7163	    0.2760	    0.8010	   12.0000	    9.6376	    0.7500	   19.9534	    1.2150	   24.2424	
  186.0000	   19.4022	    5.9102	    2.0400	    0.7000	    1.3400	    0.0000	    0.0000	  514.5827	  526.6213	    0.3015	    5.8232	  162.4054	   10.6017	   20.1029	    7.9162	   45.0000	   35.1562	   72.5544	    5.2753	   85.4564	    1.8600	   12.6607	    4.1815	    0.3312	    0.8010	   12.0000	    6.4253	    0.7000	   19.7044	    1.3182	   25.9740	
  187.0000	   19.4025	    5.9468	    2.2000	    0.7500	    1.4500	    0.0000	    0.0000	  599.9472	  582.3149	    0.2211	    6.7912	  179.1842	   11.2821	   23.0845	    7.8836	   45.0000	   32.3688	   60.4127	    6.5491	   67.0561	    1.8600	   16.4700	    5.2584	    0.4048	    0.8010	   12.0000	    8.5438	    0.7500	   19.2772	    1.2576	   24.2424	
  188.0000	   19.4028	    5.9808	    2.0400	    0.7000	    1.3400	    0.0000	    0.0000	  541.3077	  528.0349	    0.2842	    5.7793	  161.6220	   10.6841	   21.3658	    7.9357	   45.0000	   30.6407	   63.0660	    5.1916	   99.3555	    1.8600	   15.1450	    4.6287	    0.3680	    0.8010	   12.0000	    6.8489	    0.7000	   22.1130	    1.1746	   25.9740	
  189.0000	   19.4033	    6.0182	    2.2400	    0.6900	    1.5500	    0.0000	    0.0000	  493.8052	  525.9779	    0.2079	    5.9980	  155.0927	   10.4907	   20.8841	    7.9813	   45.0000	   31.4585	   65.0026	    5.9751	   74.5419	    1.8600	   13.5808	    3.8503	    0.2760	    0.8010	   12.0000	    6.4678	    0.6900	   20.9975	    1.2549	   26.3505	
  190.0000	   19.4035	    6.0458	    1.6600	    0.5900	    1.0700	    0.0000	    0.0000	  435.8968	  363.5876	    0.2141	    3.2070	  108.1788	   10.3540	   19.2956	    7.9357	   45.0000	   31.6092	   94.4852	    5.0161	   99.6868	    1.8600	   13.3416	    4.4845	    0.3864	    0.8010	   12.0000	    5.1363	    0.5900	   25.9750	    1.1864	   30.8166	
  191.0000	   19.4037	    6.0535	    0.4600	    0.3100	    0.1500	    0.0000	    0.0000	   21.6143	    4.6361	    0.1216	    0.0375	  -10.9751	    9.5414	    9.9603	    9.4200	   45.0000	   31.9303	       NaN	    3.0933	   55.7765	    1.8600	    3.0180	    2.1591	    1.1961	    0.8010	   12.0000	    0.7028	    0.3100	       NaN	       NaN	       NaN	
  192.0000	   19.4038	    6.0793	    1.5500	    0.6000	    0.9500	    0.0000	    0.0000	  387.6197	  342.7657	    0.1038	    2.8086	  104.7041	   10.2224	   18.6446	    8.0073	   45.0000	   34.0748	  108.0426	    4.2879	  128.8212	    1.8600	   14.0225	    4.9369	    0.5337	    0.8010	   12.0000	    5.2275	    0.6000	   26.8244	    1.1297	   30.3030	
  193.0000	   19.4040	    6.0972	    1.0700	    0.1200	    0.9500	    0.0000	    0.0000	    7.6633	  110.0314	    0.0416	    1.0160	   54.6363	    8.5859	    9.9733	    7.7404	   45.0000	   34.9684	  345.3974	    3.0854	   70.3812	    1.8600	    4.2693	    1.1857	    0.4233	    0.8010	   12.0000	    0.3907	    0.1200	       NaN	       NaN	       NaN	
  194.0000	   19.4043	    6.1322	    2.1000	    0.7000	    1.4000	    0.0000	    0.0000	  583.2711	  519.4049	    0.2346	    5.9397	  163.0020	   10.8860	   22.0819	    7.9292	   45.0000	   36.0111	   75.3511	    6.1697	   76.6210	    1.8600	   15.1082	    4.6566	    0.2944	    0.8010	   12.0000	    7.2728	    0.7000	   20.7735	    1.2503	   25.9740	
  195.0000	   19.4048	    6.1792	    2.8200	    0.8600	    1.9600	    0.0000	    0.0000	  536.8387	  579.5135	    0.2395	    7.1631	  147.3113	    9.8855	   18.8009	    7.3693	   45.0000	   34.6654	   65.0118	    4.9610	  114.3907	    1.8600	   11.9062	    3.3767	    0.3496	    0.8010	   12.0000	    6.5117	    0.8600	   18.2843	    1.1563	   21.1416	
  196.0000	   19.4052	    6.2145	    2.1200	    0.7600	    1.3600	    0.0000	    0.0000	  710.8983	  621.2727	    0.2315	    7.1489	  195.7757	   12.3288	   25.3109	    7.9357	   45.0000	   32.4165	   56.7079	    7.4861	   62.2567	    1.8600	   17.1693	    5.6300	    0.4417	    0.8010	   12.0000	    9.1533	    0.7600	   18.7575	    1.2754	   23.9234	
  197.0000	   19.4055	    6.2505	    2.1600	    0.7000	    1.4600	    0.0000	    0.0000	  595.4391	  613.6130	    0.2679	    7.1866	  192.1851	   11.3346	   26.7301	    7.9162	   45.0000	   32.5123	   57.5855	    6.1314	   77.3262	    1.8600	   20.8313	    5.4228	    0.1840	    0.8010	   12.0000	    8.5034	    0.7000	   24.4977	    1.0603	   25.9740	
  198.0000	   19.4060	    6.2860	    2.1300	    0.7300	    1.4000	    0.0000	    0.0000	  602.0526	  589.1734	    0.2606	    6.6211	  179.1691	   11.5438	   26.1311	    7.7209	   45.0000	   32.3213	   59.6217	    6.7758	   68.4665	    1.8600	   20.1688	    5.7959	    0.3496	    0.8010	   12.0000	    8.9814	    0.7300	   22.4563	    1.1091	   24.9066	
  199.0000	   19.4063	    6.3215	    2.1300	    0.4600	    1.6700	    0.0000	    0.0000	  340.0985	  409.4616	    0.2512	    4.3221	  114.6750	    9.2937	   18.9050	    7.3563	   45.0000	   32.4324	   86.0847	    3.3748	  161.2308	    1.8600	   13.4888	    3.0749	    0.2944	    0.8010	   12.0000	    3.9949	    0.4600	   33.7648	    1.1706	   39.5257	
  200.0000	   19.4067	    6.3588	    2.2400	    0.7800	    1.4600	    0.0000	    0.0000	  717.0410	  623.9973	    0.2338	    7.1455	  185.1357	   12.0403	   27.2509	    7.9031	   45.0000	   32.2896	   56.2393	    7.3557	   61.4203	    1.8600	   19.8008	    5.3506	    0.1472	    0.8010	   12.0000	    8.9391	    0.7800	   22.1509	    1.0523	   23.3100	
  201.0000	   19.4070	    6.3973	    2.3100	    0.7000	    1.6100	    0.0000	    0.0000	  521.5000	  577.6415	    0.2853	    6.5780	  163.4468	   10.6051	   23.1235	    7.9552	   45.0000	   32.2896	   60.7525	    5.7738	   79.2219	    1.8600	   16.8012	    4.3128	    0.3496	    0.8010	   12.0000	    7.2249	    0.7000	   23.2546	    1.1169	   25.9740	
  202.0000	   19.4073	    6.4353	    2.2800	    0.5600	    1.7200	    0.0000	    0.0000	  333.1948	  362.4059	    0.2108	    3.4951	   86.4283	    9.0812	   15.3376	    7.8706	   45.0000	   29.0839	   87.2200	    3.6128	  130.9367	    1.8600	    8.6306	    2.2290	    0.0000	    0.8010	   12.0000	    3.4374	    0.5600	   25.1077	    1.2931	   32.4675	
  203.0000	   19.4078	    6.4690	    2.0200	    0.5500	    1.4700	    0.0000	    0.0000	  302.7774	  287.0868	    0.2065	    2.1384	   57.3851	    8.9564	   14.0356	    7.9357	   45.0000	   26.6141	  100.7530	    3.3069	  146.6867	    1.8600	    6.8272	    2.0689	    0.3864	    0.8010	   12.0000	    2.6218	    0.5500	   26.0406	    1.2695	   33.0579	
  204.0000	   19.4080	    6.4998	    1.8500	    0.5800	    1.2700	    0.0000	    0.0000	  353.6250	  304.6287	    0.1758	    2.2809	   68.2755	    9.3895	   16.2620	    7.8836	   45.0000	   26.7194	   95.3270	    3.9649	  136.9062	    1.8600	    9.8268	    3.1370	    0.4601	    0.8010	   12.0000	    3.6559	    0.5800	   26.8794	    1.1662	   31.3480	
  205.0000	   19.4082	    6.5113	    0.6900	    0.0800	    0.6100	    0.0000	    0.0000	    5.1305	   27.3774	    0.0463	    0.2622	   18.7773	    8.2517	    8.8666	    7.5321	   45.0000	   27.1985	       NaN	   -0.7485	   29.9637	    1.8600	    2.5395	    1.2887	    0.5337	    0.8010	   12.0000	    0.1614	    0.0800	       NaN	       NaN	       NaN	
  206.0000	   19.4085	    6.5360	    1.4800	    0.4500	    1.0300	    0.0000	    0.0000	  361.4409	  285.4855	    0.2067	    2.0967	   76.6239	   10.0483	   18.1629	    7.9487	   45.0000	   29.0110	  110.4429	    4.4443	  120.9131	    1.8600	   10.0108	    3.3155	    0.3680	    0.8010	   12.0000	    3.0658	    0.4500	   32.6531	    1.2374	   40.4040	
  207.0000	   19.4085	    6.5430	    0.4200	    0.1400	    0.2800	    0.0000	    0.0000	    6.3533	   15.8614	    0.0176	    0.1303	   16.1076	    8.9761	    9.5567	    8.4435	   45.0000	   30.8267	       NaN	    4.3916	  146.0585	    1.8600	    2.2267	    1.3004	    0.5705	    0.8010	   12.0000	    0.2406	    0.1400	       NaN	       NaN	       NaN	
  208.0000	   19.4088	    6.5820	    2.3400	    0.5900	    1.7500	    0.0000	    0.0000	  322.7206	  366.7191	    0.1886	    3.7861	   92.2449	    9.0328	   16.0927	    7.3693	   45.0000	   32.9821	   97.7473	    3.4273	  155.4333	    1.8600	    9.7900	    2.4395	    0.2208	    0.8010	   12.0000	    3.5892	    0.5900	   27.2765	    1.1298	   30.8166	
  209.0000	   19.4097	    6.6338	    3.1100	    0.4200	    2.6900	    0.0000	    0.0000	  288.5381	  315.7532	    0.1955	    3.2362	   58.6638	    8.6409	   17.8895	    8.0464	   45.0000	   32.6531	  112.3921	    2.3625	  340.3671	    1.8600	    9.8636	    1.3575	    0.1288	    0.8010	   12.0000	    2.0648	    0.4200	   47.7697	    0.9062	   43.2900	
  210.0000	   19.4098	    6.6705	    2.2000	    0.7400	    1.4600	    0.0000	    0.0000	  469.5352	  386.0565	    0.2032	    3.8906	  100.5649	    9.9260	   17.0822	    7.2261	   45.0000	   31.6243	   89.0287	    5.7910	   73.0720	    1.8600	    9.0723	    2.9472	    0.1840	    0.8010	   12.0000	    4.8031	    0.7400	   18.8885	    1.3008	   24.5700	
  211.0000	   19.4102	    6.7080	    2.2500	    0.4700	    1.7800	    0.0000	    0.0000	  407.4024	  413.2338	    0.2682	    4.9449	  124.7138	    9.6093	   20.3242	    7.9292	   45.0000	   31.5186	   82.8955	    4.1927	  138.4727	    1.8600	   12.1823	    2.7576	    0.1840	    0.8010	   12.0000	    3.6328	    0.4700	   33.5343	    1.1536	   38.6847	
  212.0000	   19.4105	    6.7440	    2.1600	    0.7800	    1.3800	    0.0000	    0.0000	  540.5065	  461.0451	    0.1604	    5.2690	  141.9052	   10.3961	   19.2175	    7.9617	   45.0000	   31.5036	   74.2636	    5.5901	   88.6382	    1.8600	   12.4583	    3.9538	    0.3496	    0.8010	   12.0000	    6.2491	    0.7800	   19.9361	    1.1692	   23.3100	
  213.0000	   19.4108	    6.7732	    1.7500	    0.7800	    0.9700	    0.0000	    0.0000	  538.3663	  413.4776	    0.2376	    3.9990	  128.9608	   11.1061	   18.1238	    8.0464	   45.0000	   31.7308	   83.4042	    5.4786	   84.0377	    1.8600	   10.8205	    4.7711	    0.4233	    0.8010	   12.0000	    6.4101	    0.7800	   16.8805	    1.3809	   23.3100	
  214.0000	   19.4108	    6.7798	    0.4000	    0.0800	    0.3200	    0.0000	    0.0000	   -1.2671	   40.4900	   -0.0028	    0.0967	   14.9184	    9.0066	    9.5306	    8.3588	   45.0000	   32.5604	       NaN	    0.9780	   28.8234	    1.8600	    2.1347	    1.1796	    0.5889	    0.8010	   12.0000	    0.1341	    0.0800	       NaN	       NaN	       NaN	
  215.0000	   19.4112	    6.8098	    1.8000	    0.5500	    1.2500	    0.0000	    0.0000	  383.8147	  409.1131	    0.2455	    4.4556	  140.3364	   10.1375	   19.2045	    7.8966	   45.0000	   34.8331	   92.5354	    5.0034	   85.0622	    1.8600	   12.4583	    4.1322	    0.2208	    0.8010	   12.0000	    4.8028	    0.5500	   25.9397	    1.2744	   33.0579	
  216.0000	   19.4117	    6.8557	    2.7500	    1.1000	    1.6500	    0.0000	    0.0000	  677.4780	  646.8176	    0.2704	    8.4624	  178.7332	   10.8525	   21.4439	    7.9552	   45.0000	   35.2078	   59.1585	    5.5890	   85.5783	    1.8600	   14.5194	    4.3498	    0.2024	    0.8010	   12.0000	    8.9703	    1.1000	   16.1861	    1.0212	   16.5289	
  217.0000	   19.4118	    6.8692	    0.8100	    0.6100	    0.2000	    0.0000	    0.0000	  440.3864	   64.7640	    0.2508	    0.0000	  -18.5809	   12.5297	   18.9441	    8.9187	   45.0000	   31.9458	       NaN	    5.4440	  102.5792	    1.8600	   12.5871	    7.6801	    1.0121	    0.8010	   12.0000	    4.9942	    0.6100	   25.2036	    1.1826	   29.8063	
  218.0000	   19.4120	    6.8888	    1.1800	    0.0800	    1.1000	    0.0000	    0.0000	   -9.0216	  341.0101	    0.0000	    4.4698	  227.2792	    9.2354	   13.0591	    7.9617	   45.0000	   33.5352	  106.8791	    6.6251	       NaN	    1.8600	    5.9807	    1.5023	    0.3680	    0.8010	   12.0000	    0.3957	    0.0800	       NaN	       NaN	       NaN	
  219.0000	   19.4122	    6.9173	    1.7100	    0.7300	    0.9800	    0.0000	    0.0000	  563.9238	  455.7140	    0.2951	    4.5724	  150.0788	   11.9186	   23.0454	    8.0529	   45.0000	   31.8072	   75.8565	    6.6532	   64.2524	    1.8600	   16.3044	    6.0726	    0.4233	    0.8010	   12.0000	    7.9320	    0.7300	   20.5552	    1.2117	   24.9066	
  220.0000	   19.4123	    6.9243	    0.4200	    0.1100	    0.3100	    0.0000	    0.0000	   -3.8918	   32.2614	   -0.0096	    0.0593	    9.8526	    9.2163	    9.9473	    8.3914	   45.0000	   32.8032	       NaN	    2.5002	       NaN	    1.8600	    2.9628	    1.6474	    0.9017	    0.8010	   12.0000	    0.2655	    0.1100	       NaN	       NaN	       NaN	
  221.0000	   19.4127	    6.9652	    2.4500	    0.7600	    1.6900	    0.0000	    0.0000	  600.0360	  652.2844	    0.2594	    8.4689	  201.0498	   10.8605	   22.0038	    7.9357	   45.0000	   35.0536	   58.4056	    5.7107	   82.2588	    1.8600	   15.0162	    4.4977	    0.2760	    0.8010	   12.0000	    8.4675	    0.7600	   17.7339	    1.3490	   23.9234	
  222.0000	   19.4130	    6.9907	    1.5300	    0.7000	    0.8300	    0.0000	    0.0000	  560.5190	  404.9406	    0.2542	    3.3572	  121.6839	   11.5406	   23.3969	    8.1570	   45.0000	   33.9278	   91.0592	    5.4710	   89.6597	    1.8600	   17.8318	    6.2252	    0.4233	    0.8010	   12.0000	    6.8594	    0.7000	   25.9960	    0.9992	   25.9740	
  223.0000	   19.4130	    6.9985	    0.4700	    0.0900	    0.3800	    0.0000	    0.0000	   -8.6266	   64.0586	   -0.0027	    0.0664	    8.8152	    9.3051	   10.4681	    8.4500	   45.0000	   36.4316	       NaN	    3.5092	       NaN	    1.8600	    2.6499	    1.3528	    0.6625	    0.8010	   12.0000	    0.1895	    0.0900	       NaN	       NaN	       NaN	
  224.0000	   19.4143	    7.0267	    1.6900	    0.6800	    1.0100	    0.0000	    0.0000	  510.4158	  452.0729	    0.2824	    4.5042	  149.8847	   11.3382	   21.6002	    8.0464	   45.0000	   38.3912	   92.2960	    5.7216	   75.8571	    1.8600	   15.0714	    5.5956	    0.4233	    0.8010	   12.0000	    6.9644	    0.6800	   21.6406	    1.2355	   26.7380	
  225.0000	   19.4145	    7.0350	    0.5000	    0.1400	    0.3600	    0.0000	    0.0000	    9.3078	   47.1763	    0.0808	    0.6317	   66.1052	    9.4434	   10.8066	    8.5151	   45.0000	   39.3074	       NaN	    4.2106	   67.3114	    1.8600	    5.4655	    2.6359	    0.9201	    0.8010	   12.0000	    0.5862	    0.1400	       NaN	       NaN	       NaN	
  226.0000	   19.4145	    7.0640	    1.7400	    0.6700	    1.0700	    0.0000	    0.0000	  482.7124	  449.3321	    0.2581	    4.5748	  148.8513	   10.7632	   19.5560	    7.9943	   45.0000	   41.1523	   99.5373	    4.9226	  102.4714	    1.8600	   13.6729	    5.0821	    0.3312	    0.8010	   12.0000	    6.3023	    0.6700	   21.6950	    1.2508	   27.1370	
  227.0000	   19.4147	    7.0747	    0.6400	    0.0900	    0.5500	    0.0000	    0.0000	   -3.4011	   70.9716	   -0.0105	    0.2066	   20.3529	    8.8119	    9.9082	    8.2091	   45.0000	   42.1348	       NaN	    3.2468	       NaN	    1.8600	    2.5763	    1.1844	    0.4785	    0.8010	   12.0000	    0.1860	    0.0900	       NaN	       NaN	       NaN	
  228.0000	   19.4147	    7.0995	    1.4900	    0.7200	    0.7700	    0.0000	    0.0000	  499.2564	  342.7282	    0.1848	    2.4540	   91.3764	   11.1002	   18.2020	    8.1701	   45.0000	   43.6364	  138.3752	    5.1221	   91.8401	    1.8600	   11.3542	    4.9458	    0.4417	    0.8010	   12.0000	    5.7145	    0.7200	   19.8689	    1.2710	   25.2525	
  229.0000	   19.4147	    7.1095	    0.6000	    0.1900	    0.4100	    0.0000	    0.0000	   -5.3724	   68.7606	   -0.0081	    0.1425	   15.0650	    9.5437	   10.3118	    8.4760	   45.0000	   45.0070	       NaN	    3.5886	       NaN	    1.8600	    3.2572	    1.9877	    0.8833	    0.8010	   12.0000	    0.4851	    0.1900	       NaN	       NaN	       NaN	
  230.0000	   19.4148	    7.1402	    1.8400	    0.5600	    1.2800	    0.0000	    0.0000	  341.8303	  384.3081	    0.2394	    4.0505	  124.2773	    9.6373	   16.8869	    7.6623	   45.0000	   47.5719	  134.5334	    3.7054	  128.6779	    1.8600	   11.0965	    3.3925	    0.3496	    0.8010	   12.0000	    4.2028	    0.5600	   26.4028	    1.2297	   32.4675	
  231.0000	   19.4148	    7.1762	    2.1600	    0.6900	    1.4700	    0.0000	    0.0000	  602.7797	  575.9646	    0.2587	    6.9876	  186.9130	   11.3021	   23.0975	    7.9422	   45.0000	   44.4033	   83.7875	    6.5541	   69.5193	    1.8600	   16.0283	    4.9931	    0.2392	    0.8010	   12.0000	    8.0549	    0.6900	   19.8988	    1.3242	   26.3505	
  232.0000	   19.4152	    7.2152	    2.3400	    0.7400	    1.6000	    0.0000	    0.0000	  575.6339	  597.8646	    0.2500	    7.3984	  183.2937	   10.5963	   22.0819	    7.9552	   45.0000	   43.6761	   79.3963	    5.1210	  104.9515	    1.8600	   15.8995	    4.3781	    0.2760	    0.8010	   12.0000	    7.3474	    0.7400	   21.6398	    1.1354	   24.5700	
  233.0000	   19.4155	    7.2462	    1.8600	    0.6100	    1.2500	    0.0000	    0.0000	  451.6410	  429.0494	    0.2237	    4.3527	  133.1908	   10.2589	   19.5300	    7.9227	   45.0000	   43.3526	  109.8164	    4.8751	  111.0939	    1.8600	   13.5072	    4.1619	    0.3128	    0.8010	   12.0000	    5.3956	    0.6100	   25.0337	    1.1906	   29.8063	
  234.0000	   19.4158	    7.2747	    1.7100	    0.7300	    0.9800	    0.0000	    0.0000	  586.3909	  446.7121	    0.2650	    4.2401	  139.4759	   11.9255	   23.0454	    8.0529	   45.0000	   41.9776	  102.1291	    6.7466	   67.2959	    1.8600	   16.2676	    6.1801	    0.6257	    0.8010	   12.0000	    7.9082	    0.7300	   20.5706	    1.2108	   24.9066	
  235.0000	   19.4162	    7.3125	    2.2700	    0.6200	    1.6500	    0.0000	    0.0000	  273.0241	  419.4429	    0.1760	    5.1194	  130.6642	    9.1771	   17.1604	    7.8901	   45.0000	   39.9619	  103.5460	    3.2443	  161.2903	    1.8600	   12.0535	    2.6528	    0.1104	    0.8010	   12.0000	    3.6420	    0.6200	   33.0959	    0.8861	   29.3255	
  236.0000	   19.4165	    7.3508	    2.3000	    0.6400	    1.6600	    0.0000	    0.0000	  487.5130	  459.0529	    0.2283	    5.2278	  130.4213	    9.7984	   21.8996	    7.3433	   45.0000	   40.3071	   95.4285	    4.3477	  138.1541	    1.8600	   16.4332	    3.6780	    0.1656	    0.8010	   12.0000	    5.5507	    0.6400	   29.6058	    0.9596	   28.4091	
  237.0000	   19.4170	    7.3877	    2.2100	    0.5300	    1.6800	    0.0000	    0.0000	  455.3774	  437.6465	    0.2275	    4.8886	  126.5452	    9.7765	   22.4335	    7.4344	   45.0000	   36.8969	   91.6275	    4.3037	  117.6526	    1.8600	   14.7034	    3.0987	    0.1840	    0.8010	   12.0000	    4.1782	    0.5300	   35.1905	    0.9748	   34.3053	
  238.0000	   19.4187	    7.4178	    1.8100	    0.4600	    1.3500	    0.0000	    0.0000	  383.5171	  354.0856	    0.2125	    3.5032	  109.0845	    9.8078	   20.1810	    7.9422	   45.0000	   34.0265	  104.4403	    4.2014	  123.8615	    1.8600	   14.3721	    3.5988	    0.2024	    0.8010	   12.0000	    4.2784	    0.4600	   33.5921	    1.1766	   39.5257	
  239.0000	   19.4188	    7.4517	    2.0300	    0.5700	    1.4600	    0.0000	    0.0000	  439.0795	  418.9320	    0.2702	    4.5944	  127.8079	   10.0376	   21.7304	    7.8771	   45.0000	   32.0544	   83.1579	    4.8019	  108.9844	    1.8600	   16.1020	    3.9454	    0.1840	    0.8010	   12.0000	    5.3304	    0.5700	   30.2078	    1.0559	   31.8979	
  240.0000	   19.4188	    7.4908	    2.3500	    0.6700	    1.6800	    0.0000	    0.0000	  413.1542	  409.4858	    0.2667	    4.3146	  103.3493	    9.4392	   17.6291	    7.4735	   45.0000	   29.2255	   77.5681	    4.4623	   83.6800	    1.8600	    9.8084	    2.5930	    0.1656	    0.8010	   12.0000	    4.1350	    0.6700	   23.7205	    1.1440	   27.1370	
  241.0000	   19.4190	    7.5288	    2.2800	    0.5600	    1.7200	    0.0000	    0.0000	  513.9276	  484.8934	    0.2614	    5.8115	  146.0559	   10.1904	   23.2537	    7.9617	   45.0000	   28.5171	   63.9173	    5.0979	  105.8859	    1.8600	   15.0530	    3.4863	    0.1472	    0.8010	   12.0000	    4.8370	    0.5600	   31.1204	    1.0433	   32.4675	
  242.0000	   19.4190	    7.5637	    2.0900	    0.7100	    1.3800	    0.0000	    0.0000	  537.9974	  478.1134	    0.2103	    5.3407	  147.2861	   10.7216	   22.3163	    7.9422	   45.0000	   28.3554	   64.4561	    6.2799	   71.2026	    1.8600	   15.0162	    4.3783	    0.5153	    0.8010	   12.0000	    6.4758	    0.7100	   23.1881	    1.1044	   25.6082	
  243.0000	   19.4192	    7.5785	    0.8900	    0.6500	    0.2400	    0.0000	    0.0000	  474.2667	   97.8259	    0.1879	    0.0000	  -12.6706	   13.1341	   19.0222	    8.7104	   45.0000	   28.6944	       NaN	    6.1711	   75.2381	    1.8600	   12.0167	    8.0281	    0.9753	    0.8010	   12.0000	    5.8080	    0.6500	   20.6898	    1.3520	   27.9720	
  244.0000	   19.4192	    7.5862	    0.4600	    0.0900	    0.3700	    0.0000	    0.0000	  -19.8124	  110.4793	    0.0000	    0.7646	   99.7271	   10.6240	   13.2934	    8.8731	   45.0000	   30.2752	  297.8282	    5.8330	       NaN	    1.8600	    4.5454	    2.4015	    1.0857	    0.8010	   12.0000	    0.3355	    0.0900	       NaN	       NaN	       NaN	
  245.0000	   19.4193	    7.5985	    0.7400	    0.0800	    0.6600	    0.0000	    0.0000	   -4.0642	  150.3691	   -0.0001	    0.6890	   55.8713	    9.2081	   11.1191	    8.2026	   45.0000	   32.3529	  233.8377	    4.9092	       NaN	    1.8600	    1.7114	    0.6662	    0.2760	    0.8010	   12.0000	    0.1036	    0.0800	       NaN	       NaN	       NaN	
  246.0000	   19.4193	    7.6145	    0.9600	    0.6800	    0.2800	    0.0000	    0.0000	  411.0704	  121.8135	    0.2436	    0.0000	  -15.2263	   11.9445	   16.4443	    8.7169	   45.0000	   34.0587	  303.8725	    4.8694	  106.4541	    1.8600	    9.4035	    6.1297	    0.9569	    0.8010	   12.0000	    4.7770	    0.6800	   19.6849	    1.3583	   26.7380	
  247.0000	   19.4195	    7.6378	    1.4000	    0.1300	    1.2700	    0.0000	    0.0000	  -13.9114	  308.5319	    0.0022	    5.0675	  217.0845	    9.1210	   12.4862	    7.9813	   45.0000	   35.3114	  124.3869	    7.1861	       NaN	    1.8600	    7.7841	    1.6591	    0.2392	    0.8010	   12.0000	    0.7915	    0.1300	       NaN	       NaN	       NaN	
  248.0000	   19.4198	    7.6815	    2.6200	    0.7600	    1.8600	    0.0000	    0.0000	  518.3075	  532.8375	    0.3132	    6.7820	  148.1420	    9.8470	   19.5170	    7.9031	   45.0000	   35.7962	   73.0133	    4.5059	  114.6786	    1.8600	   13.2680	    3.2155	    0.0000	    0.8010	   12.0000	    5.8180	    0.7600	   22.8053	    1.0490	   23.9234	
  249.0000	   19.4212	    7.7212	    2.3800	    0.7000	    1.6800	    0.0000	    0.0000	  547.5443	  534.2678	    0.2388	    6.6446	  161.4908	   10.2582	   22.7980	    7.9292	   45.0000	   35.2304	   71.6667	    5.1388	   94.1108	    1.8600	   16.3596	    3.7503	    0.0000	    0.8010	   12.0000	    6.3708	    0.7000	   25.6792	    1.0115	   25.9740	
  250.0000	   19.4213	    7.7562	    2.1000	    0.6800	    1.4200	    0.0000	    0.0000	  439.0201	  411.4999	    0.2224	    4.3356	  117.5190	    9.5883	   18.6577	    7.9227	   45.0000	   35.9820	   95.0331	    3.6351	  144.7370	    1.8600	   12.1455	    3.0315	    0.1840	    0.8010	   12.0000	    4.2385	    0.6800	   28.6552	    0.9331	   26.7380	
  251.0000	   19.4213	    7.7893	    1.9900	    0.5800	    1.4100	    0.0000	    0.0000	  458.8392	  425.3193	    0.2111	    4.5436	  130.6276	   10.0804	   21.0143	    7.8771	   45.0000	   35.4680	   90.6318	    4.8175	  108.6136	    1.8600	   14.9426	    3.9768	    0.3128	    0.8010	   12.0000	    5.4837	    0.5800	   27.2492	    1.1504	   31.3480	
  252.0000	   19.4215	    7.8272	    2.2700	    0.7100	    1.5600	    0.0000	    0.0000	  525.8864	  503.7372	    0.2838	    5.9343	  149.3539	   10.4880	   21.3658	    8.0138	   45.0000	   35.5380	   76.6741	    5.9682	   76.5185	    1.8600	   14.2617	    3.9626	    0.1288	    0.8010	   12.0000	    6.6598	    0.7100	   21.4148	    1.1958	   25.6082	
  253.0000	   19.4217	    7.8608	    2.0200	    0.6400	    1.3800	    0.0000	    0.0000	  472.8737	  438.4759	    0.2795	    4.7007	  131.3250	   10.0976	   19.6081	    7.7664	   45.0000	   35.6789	   88.4352	    4.8657	  100.7642	    1.8600	   13.0656	    3.7910	    0.2760	    0.8010	   12.0000	    5.3150	    0.6400	   24.5824	    1.1557	   28.4091	
  254.0000	   19.4220	    7.8983	    2.2500	    0.5000	    1.7500	    0.0000	    0.0000	  426.7124	  444.5019	    0.2779	    5.2230	  131.8707	    9.7609	   21.4960	    7.9682	   45.0000	   35.1351	   85.9068	    4.1875	  129.9944	    1.8600	   15.9547	    3.6965	    0.2024	    0.8010	   12.0000	    5.1229	    0.5000	   31.1439	    1.1676	   36.3636	
  255.0000	   19.4223	    7.9255	    1.6300	    0.6500	    0.9800	    0.0000	    0.0000	  494.8989	  360.2399	    0.2056	    3.2061	  110.4482	   10.7998	   20.0768	    8.0464	   45.0000	   35.8566	  108.1774	    5.4338	   91.5538	    1.8600	   13.9121	    4.9257	    0.5153	    0.8010	   12.0000	    5.6182	    0.6500	   24.7625	    1.1296	   27.9720	
  256.0000	   19.4223	    7.9333	    0.4700	    0.1400	    0.3300	    0.0000	    0.0000	   15.0549	   33.2398	    0.1343	    0.4379	   38.7687	    9.3536	   10.8977	    8.4435	   45.0000	   32.4165	       NaN	    3.9061	   85.2516	    1.8600	    6.1832	    3.1777	    1.3434	    0.8010	   12.0000	    0.6483	    0.1400	       NaN	       NaN	       NaN	
  257.0000	   19.4227	    7.9638	    1.8300	    0.6700	    1.1600	    0.0000	    0.0000	  466.4520	  440.9421	    0.1920	    4.6052	  144.6940	   10.5067	   20.6758	    7.9422	   45.0000	   32.8522	   80.9733	    4.9712	   85.5908	    1.8600	   14.9058	    4.6366	    0.3128	    0.8010	   12.0000	    6.1552	    0.6700	   24.2167	    1.1206	   27.1370	
  258.0000	   19.4232	    8.0077	    2.6300	    0.8000	    1.8300	    0.0000	    0.0000	  478.5345	  540.4573	    0.1945	    6.8957	  152.8801	    9.7779	   19.1785	    7.8836	   45.0000	   31.4885	   63.3214	    4.2771	  120.4748	    1.8600	   12.8632	    3.3376	    0.2208	    0.8010	   12.0000	    5.7355	    0.8000	   22.4272	    1.0134	   22.7273	
  259.0000	   19.4235	    8.0428	    2.1100	    0.7300	    1.3800	    0.0000	    0.0000	  557.9252	  509.8460	    0.2295	    5.9115	  161.5740	   10.6480	   20.9882	    7.9487	   45.0000	   29.7431	   63.4026	    5.4889	   86.1055	    1.8600	   13.8201	    4.2341	    0.1656	    0.8010	   12.0000	    6.5616	    0.7300	   21.0621	    1.1825	   24.9066	
  260.0000	   19.4238	    8.0783	    2.1300	    0.7400	    1.3900	    0.0000	    0.0000	  547.5185	  515.2431	    0.2307	    5.8415	  158.0503	   10.7782	   21.4179	    7.4865	   45.0000	   30.4428	   64.2143	    6.0039	   71.5074	    1.8600	   13.9305	    4.2879	    0.1472	    0.8010	   12.0000	    6.9900	    0.7400	   19.9292	    1.2329	   24.5700	
  261.0000	   19.4242	    8.1155	    2.2300	    0.7200	    1.5100	    0.0000	    0.0000	  616.0588	  602.0129	    0.3060	    7.2466	  186.7412	   11.1692	   23.2667	    7.9422	   45.0000	   30.7979	   55.6001	    6.1269	   71.4111	    1.8600	   16.0467	    4.5849	    0.2576	    0.8010	   12.0000	    7.8629	    0.7200	   20.4082	    1.2374	   25.2525	
  262.0000	   19.4247	    8.1533	    2.2700	    0.7300	    1.5400	    0.0000	    0.0000	  625.2626	  629.7923	    0.2813	    7.5197	  191.3220	   11.4011	   25.9619	    7.9748	   45.0000	   30.6122	   52.8272	    6.5062	   71.7348	    1.8600	   19.5984	    5.2705	    0.3312	    0.8010	   12.0000	    8.8451	    0.7300	   22.1573	    1.1241	   24.9066	
  263.0000	   19.4250	    8.1918	    2.3100	    0.8400	    1.4700	    0.0000	    0.0000	  629.2804	  615.5474	    0.2331	    7.0452	  176.9382	   11.3074	   23.2277	    7.6688	   45.0000	   30.2198	   53.3567	    6.2133	   72.3926	    1.8600	   16.5804	    5.0734	    0.3496	    0.8010	   12.0000	    8.9643	    0.8400	   18.4961	    1.1702	   21.6450	
  264.0000	   19.4252	    8.2112	    1.1600	    0.5100	    0.6500	    0.0000	    0.0000	  438.6255	  266.7620	    0.2823	    1.3206	   53.7027	   11.5743	   20.7799	    8.2612	   45.0000	   30.1645	  122.8944	    5.5186	   96.8284	    1.8600	   15.2923	    6.7570	    0.9201	    0.8010	   12.0000	    5.3590	    0.5100	   28.5356	    1.2493	   35.6506	
  265.0000	   19.4253	    8.2223	    0.6700	    0.1000	    0.5700	    0.0000	    0.0000	    1.1168	  110.9962	    0.0035	    0.6718	   59.8416	    9.3598	   10.6634	    8.3458	   45.0000	   31.3987	  307.4414	    3.2114	   61.8945	    1.8600	    5.9623	    2.2953	    0.7361	    0.8010	   12.0000	    0.4649	    0.1000	       NaN	       NaN	       NaN	
  266.0000	   19.4257	    8.2593	    2.2200	    0.5500	    1.6700	    0.0000	    0.0000	  377.5567	  456.3889	    0.2907	    5.3564	  136.9116	    9.7099	   19.9857	    7.9617	   45.0000	   33.1950	   79.0492	    4.1637	  138.7781	    1.8600	   14.5010	    3.3921	    0.0920	    0.8010	   12.0000	    4.9705	    0.5500	   29.1738	    1.1331	   33.0579	
  267.0000	   19.4260	    8.2962	    2.2100	    0.6200	    1.5900	    0.0000	    0.0000	  462.7291	  440.3166	    0.1958	    4.8788	  127.1397	    9.8216	   20.3893	    7.9552	   45.0000	   32.9506	   81.3312	    4.3134	  134.7024	    1.8600	   14.7218	    3.4859	    0.2576	    0.8010	   12.0000	    5.0691	    0.6200	   29.0423	    1.0098	   29.3255	
  268.0000	   19.4263	    8.3300	    2.0300	    0.6200	    1.4100	    0.0000	    0.0000	  491.0539	  437.4276	    0.2237	    4.6811	  131.7449	   10.3817	   21.8996	    8.0268	   45.0000	   30.3169	   75.3249	    5.2770	  120.9091	    1.8600	   16.5436	    4.5881	    0.2208	    0.8010	   12.0000	    6.1426	    0.6200	   26.9327	    1.0888	   29.3255	
  269.0000	   19.4268	    8.3753	    2.7200	    0.9300	    1.7900	    0.0000	    0.0000	  442.4218	  461.0073	    0.1835	    5.1358	  109.2423	    9.4271	   16.6526	    7.6623	   45.0000	   30.0410	   70.8216	    4.1036	  132.5900	    1.8600	    9.8268	    2.6894	    0.1840	    0.8010	   12.0000	    4.7723	    0.9300	   20.5915	    0.9494	   19.5503	
  270.0000	   19.4272	    8.4135	    2.2900	    0.8000	    1.4900	    0.0000	    0.0000	  730.0952	  640.7781	    0.2104	    7.7649	  197.9337	   12.0560	   29.2950	    7.9748	   45.0000	   29.9184	   50.7446	    7.4465	   62.1420	    1.8600	   24.3646	    6.1728	    0.0552	    0.8010	   12.0000	   10.7575	    0.8000	   22.6489	    1.0035	   22.7273	
  271.0000	   19.4275	    8.4495	    2.1600	    0.6700	    1.4900	    0.0000	    0.0000	  524.9280	  555.1259	    0.2993	    6.4364	  170.4749	   10.8105	   26.5217	    7.9422	   45.0000	   29.8359	   58.4127	    5.6284	   86.5615	    1.8600	   21.3098	    4.9132	    0.3128	    0.8010	   12.0000	    7.2899	    0.6700	   29.2321	    0.9283	   27.1370	
  272.0000	   19.4278	    8.4825	    1.9800	    0.6800	    1.3000	    0.0000	    0.0000	  461.5398	  418.1563	    0.2379	    4.1568	  118.7547	   10.2582	   20.2982	    7.1545	   45.0000	   29.9401	   77.8170	    5.2701	   81.4391	    1.8600	   13.8385	    4.0469	    0.3680	    0.8010	   12.0000	    5.5412	    0.6800	   24.9738	    1.0706	   26.7380	
  273.0000	   19.4282	    8.5073	    1.4900	    0.3700	    1.1200	    0.0000	    0.0000	  252.4342	  269.2269	    0.2207	    1.9616	   70.1034	    9.1935	   16.5875	    7.8576	   45.0000	   29.9728	  120.9951	    2.4149	  130.7278	    1.8600	    7.9682	    2.1863	    0.3864	    0.8010	   12.0000	    1.6825	    0.3700	   47.3586	    1.0376	   49.1400	
  274.0000	   19.4285	    8.5372	    1.7900	    0.4600	    1.3300	    0.0000	    0.0000	  287.3418	  295.5291	    0.2417	    2.4905	   75.3776	    9.1686	   16.0016	    7.8901	   45.0000	   31.0734	  114.2743	    2.8575	  185.3898	    1.8600	   10.0476	    2.8254	    0.4601	    0.8010	   12.0000	    2.9207	    0.4600	   34.4013	    1.1490	   39.5257	
  275.0000	   19.4288	    8.5712	    2.0400	    0.5100	    1.5300	    0.0000	    0.0000	  277.1792	  277.4439	    0.1989	    2.2315	   59.7832	    8.8469	   15.1162	    7.8966	   45.0000	   31.8533	  124.7781	    2.5429	  192.4676	    1.8600	    9.0907	    2.2782	    0.3496	    0.8010	   12.0000	    2.6144	    0.5100	   34.7716	    1.0253	   35.6506	
  276.0000	   19.4292	    8.6125	    2.4800	    0.7400	    1.7400	    0.0000	    0.0000	  423.6303	  401.5061	    0.1942	    4.2569	   98.2913	    9.3379	   16.7958	    7.8185	   45.0000	   28.6670	   77.5978	    3.8719	  135.9180	    1.8600	   10.2500	    2.6267	    0.0184	    0.8010	   12.0000	    4.2697	    0.7400	   24.0066	    1.0235	   24.5700	
  277.0000	   19.4295	    8.6495	    2.2200	    0.7400	    1.4800	    0.0000	    0.0000	  619.7589	  545.9956	    0.2129	    6.6814	  174.8249	   11.1254	   24.8031	    8.0268	   45.0000	   28.3152	   56.3625	    6.4274	   70.4439	    1.8600	   18.6415	    5.0148	    0.3128	    0.8010	   12.0000	    8.0768	    0.7400	   23.0802	    1.0646	   24.5700	
  278.0000	   19.4300	    8.6863	    2.2100	    0.6400	    1.5700	    0.0000	    0.0000	  408.2896	  439.6185	    0.2994	    4.9258	  125.6020	    9.8289	   19.1003	    8.0203	   45.0000	   28.3019	   69.9679	    4.9786	   86.0717	    1.8600	   11.7590	    3.1858	    0.1656	    0.8010	   12.0000	    4.9231	    0.6400	   23.8852	    1.1894	   28.4091	
  279.0000	   19.4303	    8.7328	    2.7900	    0.8400	    1.9500	    0.0000	    0.0000	  599.9290	  566.0645	    0.2509	    7.1515	  148.4001	   10.0242	   19.9857	    7.4474	   45.0000	   28.0636	   53.8812	    5.1264	  101.9487	    1.8600	   13.1760	    3.4452	    0.1840	    0.8010	   12.0000	    6.5661	    0.8400	   20.0667	    1.0787	   21.6450	
  280.0000	   19.4308	    8.7673	    2.0700	    0.5000	    1.5700	    0.0000	    0.0000	  458.8961	  442.3891	    0.2967	    5.0042	  136.4466	   10.0669	   21.7564	    7.3433	   45.0000	   27.9720	   68.7193	    4.5281	  135.5514	    1.8600	   13.8201	    3.3936	    0.3496	    0.8010	   12.0000	    4.3680	    0.5000	   31.6397	    1.1493	   36.3636	
  281.0000	   19.4312	    8.8055	    2.2900	    0.4800	    1.8100	    0.0000	    0.0000	  386.9454	  403.7593	    0.1980	    4.5110	  113.0028	    9.3656	   22.6548	    7.8901	   45.0000	   28.2619	   76.0743	    3.3534	  164.0802	    1.8600	   15.7339	    2.5958	    0.0368	    0.8010	   12.0000	    3.4484	    0.4800	   45.6268	    0.8302	   37.8788	
